Data from sample_5_A_6Oclock_ST026791__133__23242.txt Node

Date: Tue Aug 19 16:42:20 AEST 2025
User: mathewyoussef
Spectrometer: ST02679
Trigger mode: 0
Integration Time (sec): 6.653700E-1
Scans to average: 1
Nonlinearity correction enabled: true
Boxcar width: 0
Storing dark spectrum: false
XAxis mode: Wavelengths
Number of Pixels in Spectrum: 1516
>>>>>Begin Spectral Data<<<<<
187.304	623.39736
187.653	668.85394
188.002	650.89731
188.351	596.91145
188.7	599.03194
189.048	625.51436
189.397	658.29348
189.746	640.32577
190.094	599.03194
190.443	589.48748
190.791	585.24363
191.14	595.8511
191.488	614.92662
191.837	602.21215
192.185	582.05997
192.533	611.74894
192.881	635.0375
193.229	618.10366
193.577	642.44061
193.925	650.89731
194.273	618.10366
194.621	619.16254
194.969	624.4559
195.317	592.66961
195.664	605.39171
196.012	595.8511
196.359	568.25651
196.707	612.80824
197.054	620.22135
197.402	627.63109
197.749	638.21066
198.096	631.86373
198.443	622.33876
198.791	593.73018
199.138	570.38093
199.485	582.05997
199.832	607.51107
200.179	618.10366
200.525	630.80567
200.872	619.16254
201.219	610.68958
201.566	618.10366
201.912	623.39736
202.259	607.51107
202.605	582.05997
202.952	583.12126
203.298	604.33193
203.644	622.33876
203.991	599.03194
204.337	565.06931
204.683	561.88144
205.029	578.87566
205.375	602.21215
205.721	649.84046
206.067	655.12409
206.413	644.55518
206.759	629.74755
207.104	622.33876
207.45	628.68935
207.796	614.92662
208.141	589.48748
208.487	603.27207
208.832	635.0375
209.177	609.63015
209.523	590.54827
209.868	606.45143
210.213	619.16254
210.558	613.86746
210.903	631.86373
211.248	636.09528
211.593	614.92662
211.938	614.92662
212.283	642.44061
212.628	631.86373
212.973	602.21215
213.317	603.27207
213.662	609.63015
214.007	615.9857
214.351	609.63015
214.696	621.28009
215.04	632.92172
215.384	611.74894
215.729	608.57064
216.073	621.28009
216.417	636.09528
216.761	607.51107
217.105	592.66961
217.449	617.04472
217.793	633.97964
218.137	603.27207
218.481	591.60898
218.824	637.15301
219.168	626.57276
219.512	603.27207
219.855	599.03194
220.199	589.48748
220.542	593.73018
220.886	610.68958
221.229	620.22135
221.572	596.91145
221.916	583.12126
222.259	591.60898
222.602	579.93717
222.945	583.12126
223.288	617.04472
223.631	621.28009
223.974	611.74894
224.317	599.03194
224.659	614.92662
225.002	636.09528
225.345	618.10366
225.687	614.92662
226.03	600.09208
226.372	575.69069
226.715	599.03194
227.057	595.8511
227.4	595.8511
227.742	643.49793
228.084	633.97964
228.426	602.21215
228.768	612.80824
229.11	606.45143
229.452	575.69069
229.794	607.51107
230.136	639.26825
230.478	611.74894
230.82	612.80824
231.161	619.16254
231.503	680.46307
231.845	674.13176
232.186	653.01083
232.528	658.29348
232.869	588.42663
233.21	609.63015
233.552	613.86746
233.893	600.09208
234.234	597.97173
234.575	601.15215
234.916	629.74755
235.257	626.57276
235.598	639.26825
235.939	637.15301
236.28	605.39171
236.621	600.09208
236.961	641.38322
237.302	640.32577
237.643	603.27207
237.983	615.9857
238.324	613.86746
238.664	642.44061
239.005	636.09528
239.345	590.54827
239.685	615.9857
240.025	608.57064
240.366	561.88144
240.706	594.79068
241.046	626.57276
241.386	607.51107
241.726	614.92662
242.066	609.63015
242.405	603.27207
242.745	617.04472
243.085	620.22135
243.425	592.66961
243.764	609.63015
244.104	687.84674
244.443	667.79818
244.783	612.80824
245.122	597.97173
245.461	607.51107
245.801	613.86746
246.14	607.51107
246.479	595.8511
246.818	570.38093
247.157	633.97964
247.496	644.55518
247.835	589.48748
248.174	606.45143
248.513	608.57064
248.852	663.57452
249.19	687.84674
249.529	649.84046
249.868	608.57064
250.206	600.09208
250.545	625.51436
250.883	610.68958
251.221	584.18248
251.56	597.97173
251.898	611.74894
252.236	623.39736
252.574	624.4559
252.912	592.66961
253.25	576.75242
253.588	588.42663
253.926	617.04472
254.264	609.63015
254.602	591.60898
254.94	589.48748
255.278	557.62989
255.615	555.50366
255.953	591.60898
256.29	605.39171
256.628	580.99861
256.965	560.81866
257.303	575.69069
257.64	626.57276
257.977	632.92172
258.314	601.15215
258.652	589.48748
258.989	600.09208
259.326	601.15215
259.663	602.21215
260	606.45143
260.337	555.50366
260.673	549.12314
261.01	583.12126
261.347	604.33193
261.684	604.33193
262.02	612.80824
262.357	609.63015
262.693	585.24363
263.03	580.99861
263.366	575.69069
263.702	585.24363
264.039	604.33193
264.375	603.27207
264.711	578.87566
265.047	579.93717
265.383	619.16254
265.719	612.80824
266.055	607.51107
266.391	627.63109
266.727	624.4559
267.063	600.09208
267.399	588.42663
267.734	605.39171
268.07	605.39171
268.405	594.79068
268.741	600.09208
269.076	586.3047
269.412	589.48748
269.747	594.79068
270.082	590.54827
270.418	587.3657
270.753	606.45143
271.088	627.63109
271.423	608.57064
271.758	599.03194
272.093	610.68958
272.428	601.15215
272.763	593.73018
273.098	597.97173
273.433	587.3657
273.767	590.54827
274.102	599.03194
274.436	590.54827
274.771	596.91145
275.106	593.73018
275.44	621.28009
275.774	662.51844
276.109	615.9857
276.443	594.79068
276.777	596.91145
277.111	596.91145
277.445	600.09208
277.78	605.39171
278.114	626.57276
278.447	617.04472
278.781	602.21215
279.115	582.05997
279.449	568.25651
279.783	602.21215
280.116	614.92662
280.45	591.60898
280.784	593.73018
281.117	618.10366
281.451	594.79068
281.784	654.06749
282.117	669.90963
282.451	589.48748
282.784	592.66961
283.117	606.45143
283.45	618.10366
283.783	608.57064
284.116	595.8511
284.449	599.03194
284.782	620.22135
285.115	650.89731
285.448	619.16254
285.781	600.09208
286.114	610.68958
286.446	593.73018
286.779	654.06749
287.111	642.44061
287.444	596.91145
287.776	619.16254
288.109	627.63109
288.441	623.39736
288.773	620.22135
289.106	657.23708
289.438	622.33876
289.77	610.68958
290.102	629.74755
290.434	617.04472
290.766	699.44353
291.098	683.62787
291.43	638.21066
291.762	646.66949
292.094	619.16254
292.425	629.74755
292.757	626.57276
293.089	632.92172
293.42	625.51436
293.752	625.51436
294.083	635.0375
294.414	670.96526
294.746	670.96526
295.077	639.26825
295.408	650.89731
295.74	687.84674
296.071	677.2977
296.402	642.44061
296.733	661.4623
297.064	693.11893
297.395	696.2815
297.726	677.2977
298.056	731.03409
298.387	749.96324
298.718	762.57252
299.049	799.30481
299.379	740.50098
299.71	709.97967
300.04	757.31963
300.371	715.24549
300.701	728.9297
301.031	853.76185
301.362	815.02749
301.692	797.20757
302.022	841.20672
302.352	830.73875
302.682	797.20757
303.012	804.54699
303.342	875.71688
303.672	847.48515
304.002	842.25324
304.332	845.39253
304.662	848.53139
304.992	831.78577
305.321	812.9318
305.651	880.94124
305.98	922.69574
306.31	904.95872
306.639	894.51925
306.969	919.56659
307.298	916.43705
307.628	948.7572
307.957	942.50484
308.286	924.78163
308.615	936.25097
308.944	957.09139
309.273	988.32175
309.602	971.67
309.931	1015.35986
310.26	1035.10259
310.589	1061.06017
310.918	1069.362
311.247	1121.20015
311.575	1108.7664
311.904	1090.1071
312.233	1218.44774
312.561	1180.20008
312.89	1151.22986
313.218	1287.61384
313.546	1275.2343
313.875	1132.59378
314.203	1145.01893
314.531	1173.9941
314.859	1136.73598
315.188	1150.19478
315.516	1280.39288
315.844	1350.48979
316.172	1339.1579
316.5	1336.0669
316.827	1278.32952
317.155	1265.9473
317.483	1310.30052
317.811	1319.5781
318.138	1286.58235
318.466	1309.26956
318.794	1286.58235
319.121	1239.10655
319.449	1381.38127
319.776	1443.10687
320.103	1371.0863
320.431	1402.99373
320.758	1355.63975
321.085	1364.90828
321.412	1486.27191
321.739	1502.70691
322.066	1477.02511
322.393	1444.13501
322.72	1456.47113
323.047	1463.6659
323.374	1508.86881
323.701	1544.80027
324.028	1534.53637
324.354	1508.86881
324.681	1515.03005
325.008	1607.37276
325.334	1584.81288
325.661	1568.4006
325.987	1631.9745
326.314	1673.98127
326.64	1634.02422
326.966	1618.64971
327.293	1634.02422
327.619	1619.67479
327.945	1609.42326
328.271	1606.34749
328.597	1644.27189
328.923	1651.44433
329.249	1639.14826
329.575	1651.44433
329.901	1628.89979
330.227	1609.42326
330.552	1681.15055
330.878	1699.58242
331.204	1692.41505
331.529	1692.41505
331.855	1760.98728
332.18	1828.47333
332.506	1742.57134
332.831	1653.49345
333.156	1743.59457
333.482	1839.71517
333.807	1793.71537
334.132	1830.51742
334.457	1849.93359
334.782	1763.03321
335.107	1747.68734
335.432	1706.74905
335.757	1699.58242
336.082	1776.33037
336.407	1848.91181
336.732	1851.97712
337.057	1831.53945
337.381	1841.75896
337.706	1828.47333
338.031	1801.89515
338.355	1759.9643
338.68	1814.16316
339.004	1876.49524
339.329	1931.63326
339.653	1927.55027
339.977	1895.9
340.301	1905.09008
340.626	1874.45236
340.95	1873.43089
341.274	1901.00573
341.598	1912.23718
341.922	1919.38365
342.246	1942.86044
342.57	1998.97318
342.894	1961.22884
343.218	1971.43172
343.541	2091.73096
343.865	2012.23061
344.189	1976.53269
344.512	2047.91318
344.836	2055.04786
345.159	2026.50547
345.483	2017.32905
345.806	2015.28971
346.13	2091.73096
346.453	2103.95511
346.776	2080.52393
347.099	2132.47126
347.423	2129.41641
347.746	2118.21438
348.069	2157.92399
348.392	2181.33376
348.715	2125.34312
349.038	2147.74381
349.361	2142.65327
349.683	2165.04939
350.006	2168.10294
350.329	2117.19594
350.652	2153.85206
350.974	2179.29838
351.297	2222.03103
351.619	2239.32146
351.942	2294.22061
352.264	2316.5767
352.587	2211.85854
352.909	2140.61696
353.231	2179.29838
353.554	2253.558
353.876	2240.33844
354.198	2340.95839
354.52	2414.06082
354.842	2359.24
355.164	2404.92652
355.486	2436.38483
355.808	2331.81608
356.13	2361.27104
356.452	2519.53903
356.773	2462.75996
357.095	2316.5767
357.417	2283.04034
357.738	2353.14657
358.06	2430.29706
358.381	2373.45627
358.703	2316.5767
359.024	2385.63972
359.346	2388.6853
359.667	2404.92652
359.988	2331.81608
360.309	2294.22061
360.631	2423.1941
360.952	2458.7028
361.273	2432.32637
361.594	2433.34101
361.915	2466.81692
362.236	2460.73141
362.557	2462.75996
362.878	2475.94435
363.198	2466.81692
363.519	2526.63361
363.84	2524.60665
364.16	2426.2383
364.481	2501.29294
364.802	2512.44381
365.122	2524.60665
365.443	2568.17506
365.763	2510.4165
366.083	2487.0987
366.404	2453.63107
366.724	2480.00065
367.044	2553.9926
367.364	2534.74095
367.685	2477.97252
368.005	2458.7028
368.325	2425.22358
368.645	2494.19613
368.965	2520.55258
369.284	2411.01616
369.604	2482.02873
369.924	2598.55756
370.244	2624.87962
370.564	2601.59517
370.883	2585.39324
371.203	2579.31666
371.522	2573.23962
371.842	2708.84847
372.161	2712.89286
372.481	2586.40595
372.8	2590.45669
373.119	2671.42779
373.439	2712.89286
373.758	2703.79268
374.077	2715.92601
374.396	2715.92601
374.715	2649.16909
375.034	2563.11019
375.353	2516.4983
375.672	2452.61669
375.991	2270.842
376.31	2222.03103
376.629	2276.94139
376.948	2272.87518
377.266	2363.30204
377.585	2501.29294
377.904	2604.63266
378.222	2637.02529
378.541	2651.19287
378.859	2717.94805
379.178	2790.70555
379.496	2821.00045
379.814	2751.3039
380.133	2621.84291
380.451	2637.02529
380.769	2667.38123
381.087	2618.80608
381.405	2575.26535
381.723	2628.92839
382.041	2697.7253
382.359	2645.12137
382.677	2586.40595
382.995	2682.55475
383.313	2801.8151
383.631	2806.86436
383.949	2751.3039
384.266	2747.26154
384.584	2795.75555
384.901	2715.92601
385.219	2726.03565
385.537	2786.6653
385.854	2705.81504
386.171	2755.34604
386.489	2824.02927
386.806	2804.8447
387.123	2821.00045
387.441	2768.4815
387.758	2845.22752
388.075	2855.31979
388.392	2780.60452
388.709	2748.27215
389.026	2707.83734
389.343	2714.91498
389.66	2735.13319
389.977	2826.04841
390.294	2862.38356
390.61	2902.73495
390.927	2914.83603
391.244	2861.3745
391.56	2832.10551
391.877	2804.8447
392.193	2831.09602
392.51	2885.58833
392.826	2826.04841
393.143	2760.39841
393.459	2818.98118
393.775	2766.46081
394.092	2741.19761
394.408	2791.71557
394.724	2843.2089
395.04	2910.80256
395.356	2963.22017
395.672	3042.78149
395.988	3015.59964
396.304	3014.5927
396.62	3039.7618
396.936	3104.15386
397.252	3136.32774
397.567	3070.95906
397.883	3065.92818
398.199	3046.80755
398.514	3029.69523
398.83	3133.31207
399.146	3145.37396
399.461	3053.85259
399.777	3059.89064
400.092	3095.10229
400.407	3006.53671
400.723	2931.97578
401.038	2926.9351
401.353	2915.84436
401.668	2961.20482
401.983	2989.4147
402.298	2971.28105
402.613	2919.87755
402.928	2900.71791
403.243	2869.44666
403.558	2891.64054
403.873	2993.44377
404.188	2966.24311
404.503	2878.52678
404.817	2809.89375
405.132	2886.59706
405.447	2972.28859
405.761	3003.51547
406.076	3014.5927
406.39	3002.50837
406.705	2996.46543
407.019	3005.52964
407.334	3088.06137
407.648	3070.95906
407.962	2946.08783
408.276	2906.76887
408.591	2939.03215
408.905	2961.20482
409.219	3104.15386
409.533	3146.37903
409.847	3078.00169
410.161	3068.94675
410.475	3080.01374
410.789	3056.87168
411.102	3032.71535
411.416	3206.6562
411.73	3244.80453
412.044	3155.42395
412.357	3151.40413
412.671	3051.83979
412.984	2999.48696
413.298	3037.7486
413.611	3132.30681
413.925	3168.48675
414.238	3095.10229
414.552	3066.93438
414.865	3025.6682
415.178	2947.09572
415.491	2948.10361
415.804	3057.87802
416.118	3030.70195
416.431	2904.75194
416.744	2916.85268
417.057	2938.02414
417.37	2929.95955
417.683	2941.04813
417.995	2939.03215
418.308	2902.73495
418.621	2885.58833
418.934	2843.2089
419.246	2867.4287
419.559	3035.73534
419.872	3097.11385
420.184	3108.17641
420.497	3049.82694
420.809	3055.86533
421.121	3007.54376
421.434	2911.81095
421.746	3011.57181
422.058	3064.92196
422.371	3016.60656
422.683	2939.03215
422.995	2903.74345
423.307	2946.08783
423.619	3015.59964
423.931	2975.31114
424.243	2948.10361
424.555	2911.81095
424.867	2887.60579
425.179	2975.31114
425.491	2933.99196
425.802	2866.4197
426.114	2918.86928
426.426	2898.70082
426.737	2861.3745
427.049	2889.62319
427.361	2966.24311
427.672	2989.4147
427.984	2909.79416
428.295	2869.44666
428.606	2809.89375
428.918	2849.26459
429.229	3040.76838
429.54	2997.47262
429.851	2773.533
430.163	2707.83734
430.474	2791.71557
430.785	2832.10551
431.096	2777.57395
431.407	2787.67538
431.718	2839.17149
432.029	2854.31063
432.339	2841.19022
432.65	2855.31979
432.961	2839.17149
433.272	2794.74557
433.582	2796.76551
433.893	2760.39841
434.204	2733.11161
434.514	2763.42967
434.825	2807.87417
435.135	2810.90352
435.446	2815.95216
435.756	2862.38356
436.066	2951.12717
436.377	2997.47262
436.687	2881.55324
436.997	2777.57395
437.307	2787.67538
437.617	2760.39841
437.927	2737.15471
438.237	2828.0675
438.547	2863.39262
438.857	2819.99082
439.167	2923.91052
439.477	3025.6682
439.787	2968.25832
440.097	2941.04813
440.407	3010.56482
440.716	2887.60579
441.026	2832.10551
441.336	2985.38539
441.645	2941.04813
441.955	2807.87417
442.264	2840.18087
442.574	3008.55079
442.883	2969.26591
443.192	2890.63187
443.502	2953.14282
443.811	2974.30364
444.12	2929.95955
444.429	2781.61468
444.739	2730.07914
445.048	2849.26459
445.357	2894.66645
445.666	2841.19022
445.975	2856.32894
446.284	2854.31063
446.593	2836.1433
446.901	2807.87417
447.21	2806.86436
447.519	2838.16211
447.828	2824.02927
448.136	2762.41926
448.445	2852.29226
448.754	2850.27383
449.062	2797.77545
449.371	2901.72644
449.679	2964.22783
449.988	2973.29612
450.296	3020.6341
450.605	3135.32253
450.913	3280.92552
451.221	3485.25052
451.529	3564.2118
451.838	3387.17098
452.146	3206.6562
452.454	3257.85042
452.762	3348.09992
453.07	3236.77506
453.378	3074.98351
453.686	3124.26427
453.994	3251.82955
454.302	3162.45807
454.609	2977.32611
454.917	2932.98388
455.225	2973.29612
455.533	2953.14282
455.84	2925.92692
456.148	2905.76041
456.455	2837.15271
456.763	2871.46456
457.07	3012.57879
457.378	3049.82694
457.685	3029.69523
457.993	3017.61346
458.3	2998.4798
458.607	2972.28859
458.915	3006.53671
459.222	3142.35868
459.529	3126.27499
459.836	3126.27499
460.143	3015.59964
460.45	2917.86099
460.757	3019.62723
461.064	3103.14819
461.371	3159.44353
461.678	3079.00773
461.985	3009.55781
462.292	3170.49619
462.598	3349.10203
462.905	3360.12418
463.212	3393.17991
463.518	3493.25077
463.825	3530.23969
464.131	3690.95874
464.438	3813.49301
464.744	3597.16857
465.051	3479.24972
465.357	3612.14367
465.664	3623.12334
465.97	3477.24933
466.276	3378.15657
466.582	3314.01968
466.889	3358.12028
467.195	3516.24625
467.501	3615.1383
467.807	3818.46957
468.113	4064.87973
468.419	4184.81414
468.725	4228.38243
469.031	4430.09424
469.337	4642.22699
469.642	4514.01214
469.948	4315.45154
470.254	4345.11432
470.56	4186.79502
470.865	3930.84762
471.171	3903.01802
471.477	3833.39714
471.782	3735.81327
472.088	3677.99537
472.393	3700.92892
472.698	3666.02701
473.004	3516.24625
473.309	3561.21494
473.614	3652.06131
473.92	3754.74318
474.225	3821.45533
474.53	3746.77331
474.835	3715.8815
475.14	3667.02446
475.445	3629.1115
475.75	3554.22176
476.055	3471.24782
476.36	3390.17551
476.665	3221.71728
476.97	3206.6562
477.275	3323.04258
477.58	3313.01707
477.885	3271.89706
478.189	3175.51955
478.494	3118.23176
478.799	3135.32253
479.103	3118.23176
479.408	3127.28033
479.712	3164.46769
480.017	3162.45807
480.321	3206.6562
480.625	3272.90028
480.93	3350.10411
481.234	3454.24066
481.538	3557.21892
481.843	3691.95582
482.147	3735.81327
482.451	3793.5833
482.755	3928.86014
483.059	3968.59949
483.363	4007.32487
483.667	4047.02252
483.971	3999.38283
484.275	4028.16873
484.579	4090.66617
484.883	4145.18643
485.187	4161.03985
485.49	4060.91182
485.794	4001.36842
486.098	4037.10005
486.401	4017.25123
486.705	3935.81608
487.009	3864.23756
487.312	3908.9824
487.616	3983.49624
487.919	3894.07053
488.222	3835.38725
488.526	3861.25358
488.829	3918.92195
489.132	3975.55168
489.436	3909.97642
489.739	3877.1667
490.042	3893.07629
490.345	3990.44704
490.648	3971.57908
490.951	3884.12758
491.254	4007.32487
491.557	4065.87167
491.86	3986.47523
492.163	4097.60721
492.466	4265.00181
492.769	4372.79077
493.072	4548.54642
493.375	4662.92496
493.677	4648.14106
493.98	4624.48297
494.283	4565.31615
494.585	4508.09082
494.888	4526.84049
495.19	4493.28603
495.493	4452.80847
495.795	4275.88561
496.098	4128.33873
496.4	4230.36226
496.702	4231.35216
497.005	4148.15919
497.307	4230.36226
497.609	4216.50244
497.911	4180.85224
498.213	4150.14096
498.515	4116.44408
498.818	4112.4788
499.12	4115.45278
499.422	4152.12269
499.723	4109.50471
500.025	4099.59025
500.327	4068.84743
500.629	4120.40916
500.931	4169.95603
501.233	4065.87167
501.534	4080.74932
501.836	4130.321
502.138	4134.28538
502.439	4194.71805
502.741	4246.19924
503.042	4242.24028
503.344	4311.49575
503.645	4407.37463
503.947	4356.97669
504.248	4301.60551
504.55	4296.65996
504.851	4416.26556
505.152	4488.35062
505.453	4327.31784
505.755	4339.18256
506.056	4355.98822
506.357	4254.11662
506.658	4344.12572
506.959	4369.82584
507.26	4311.49575
507.561	4311.49575
507.862	4314.46261
508.163	4241.25051
508.464	4257.08545
508.764	4356.97669
509.065	4259.06461
509.366	4373.77906
509.667	4441.94581
509.967	4369.82584
510.268	4433.05727
510.569	4409.35047
510.869	4382.67319
511.17	4389.59025
511.47	4450.83353
511.771	4391.56646
512.071	4397.49484
512.371	4442.93337
512.672	4318.41826
512.972	4270.9386
513.272	4378.72035
513.573	4342.14849
513.873	4341.15985
514.173	4350.05717
514.473	4301.60551
514.773	4397.49484
515.073	4338.19389
515.373	4317.42937
515.673	4363.89569
515.973	4278.85368
516.273	4295.67082
516.573	4354.99974
516.873	4292.70333
517.172	4355.98822
517.472	4353.02274
517.772	4268.95971
518.072	4282.81095
518.371	4275.88561
518.671	4300.61642
518.97	4266.98078
519.27	4286.76804
519.569	4368.83751
519.869	4316.44046
520.168	4279.84302
520.468	4224.42262
520.767	4221.45264
521.066	4238.28112
521.366	4274.89623
521.665	4288.74651
521.964	4304.5727
522.263	4317.42937
522.562	4327.31784
522.861	4350.05717
523.161	4231.35216
523.46	4163.02131
523.759	4210.56181
524.057	4277.86434
524.356	4274.89623
524.655	4221.45264
524.954	4250.15802
525.253	4328.30663
525.552	4324.35141
525.85	4295.67082
526.149	4295.67082
526.448	4297.64909
526.746	4211.55195
527.045	4243.23004
527.344	4418.24121
527.642	4436.02021
527.941	4383.66137
528.239	4311.49575
528.537	4303.58364
