Data from white_1_6_ST026791__141__22500.txt Node

Date: Tue Aug 19 16:20:43 AEST 2025
User: mathewyoussef
Spectrometer: ST02679
Trigger mode: 0
Integration Time (sec): 6.653700E-1
Scans to average: 1
Nonlinearity correction enabled: true
Boxcar width: 0
Storing dark spectrum: false
XAxis mode: Wavelengths
Number of Pixels in Spectrum: 1516
>>>>>Begin Spectral Data<<<<<
187.304	615.9857
187.653	645.61237
188.002	625.51436
188.351	609.63015
188.7	606.45143
189.048	626.57276
189.397	632.92172
189.746	613.86746
190.094	612.80824
190.443	600.09208
190.791	583.12126
191.14	578.87566
191.488	558.69289
191.837	583.12126
192.185	603.27207
192.533	577.81408
192.881	595.8511
193.229	590.54827
193.577	585.24363
193.925	614.92662
194.273	619.16254
194.621	642.44061
194.969	609.63015
195.317	571.44303
195.664	608.57064
196.012	596.91145
196.359	560.81866
196.707	574.62889
197.054	588.42663
197.402	593.73018
197.749	592.66961
198.096	605.39171
198.443	614.92662
198.791	562.94414
199.138	584.18248
199.485	624.4559
199.832	615.9857
200.179	606.45143
200.525	607.51107
200.872	613.86746
201.219	609.63015
201.566	644.55518
201.912	617.04472
202.259	566.13178
202.605	577.81408
202.952	587.3657
203.298	586.3047
203.644	589.48748
203.991	584.18248
204.337	587.3657
204.683	603.27207
205.029	607.51107
205.375	596.91145
205.721	584.18248
206.067	632.92172
206.413	626.57276
206.759	573.56701
207.104	583.12126
207.45	615.9857
207.796	626.57276
208.141	617.04472
208.487	620.22135
208.832	592.66961
209.177	566.13178
209.523	588.42663
209.868	607.51107
210.213	618.10366
210.558	607.51107
210.903	594.79068
211.248	585.24363
211.593	613.86746
211.938	627.63109
212.283	623.39736
212.628	628.68935
212.973	604.33193
213.317	596.91145
213.662	590.54827
214.007	600.09208
214.351	596.91145
214.696	624.4559
215.04	628.68935
215.384	583.12126
215.729	579.93717
216.073	584.18248
216.417	597.97173
216.761	603.27207
217.105	591.60898
217.449	620.22135
217.793	622.33876
218.137	599.03194
218.481	578.87566
218.824	605.39171
219.168	610.68958
219.512	579.93717
219.855	599.03194
220.199	590.54827
220.542	556.56681
220.886	570.38093
221.229	585.24363
221.572	604.33193
221.916	640.32577
222.259	612.80824
222.602	561.88144
222.945	540.61148
223.288	578.87566
223.631	589.48748
223.974	580.99861
224.317	608.57064
224.659	623.39736
225.002	629.74755
225.345	599.03194
225.687	584.18248
226.03	607.51107
226.372	609.63015
226.715	599.03194
227.057	602.21215
227.4	621.28009
227.742	596.91145
228.084	572.50506
228.426	590.54827
228.768	600.09208
229.11	606.45143
229.452	608.57064
229.794	611.74894
230.136	611.74894
230.478	596.91145
230.82	570.38093
231.161	575.69069
231.503	653.01083
231.845	648.78353
232.186	627.63109
232.528	639.26825
232.869	577.81408
233.21	570.38093
233.552	582.05997
233.893	574.62889
234.234	588.42663
234.575	601.15215
234.916	631.86373
235.257	647.72654
235.598	620.22135
235.939	606.45143
236.28	592.66961
236.621	584.18248
236.961	625.51436
237.302	603.27207
237.643	557.62989
237.983	595.8511
238.324	594.79068
238.664	629.74755
239.005	639.26825
239.345	611.74894
239.685	633.97964
240.025	623.39736
240.366	620.22135
240.706	624.4559
241.046	619.16254
241.386	584.18248
241.726	590.54827
242.066	610.68958
242.405	600.09208
242.745	628.68935
243.085	635.0375
243.425	608.57064
243.764	624.4559
244.104	669.90963
244.443	680.46307
244.783	649.84046
245.122	596.91145
245.461	569.31875
245.801	599.03194
246.14	583.12126
246.479	571.44303
246.818	608.57064
247.157	644.55518
247.496	620.22135
247.835	570.38093
248.174	577.81408
248.513	607.51107
248.852	647.72654
249.19	630.80567
249.529	590.54827
249.868	601.15215
250.206	614.92662
250.545	619.16254
250.883	618.10366
251.221	605.39171
251.56	593.73018
251.898	565.06931
252.236	575.69069
252.574	603.27207
252.912	595.8511
253.25	601.15215
253.588	590.54827
253.926	594.79068
254.264	597.97173
254.602	605.39171
254.94	620.22135
255.278	588.42663
255.615	578.87566
255.953	607.51107
256.29	594.79068
256.628	589.48748
256.965	580.99861
257.303	568.25651
257.64	635.0375
257.977	656.18062
258.314	631.86373
258.652	586.3047
258.989	578.87566
259.326	596.91145
259.663	601.15215
260	603.27207
260.337	580.99861
260.673	567.19418
261.01	561.88144
261.347	582.05997
261.684	568.25651
262.02	553.37712
262.357	574.62889
262.693	592.66961
263.03	597.97173
263.366	606.45143
263.702	585.24363
264.039	579.93717
264.375	612.80824
264.711	629.74755
265.047	621.28009
265.383	613.86746
265.719	605.39171
266.055	599.03194
266.391	637.15301
266.727	639.26825
267.063	606.45143
267.399	602.21215
267.734	618.10366
268.07	608.57064
268.405	583.12126
268.741	617.04472
269.076	621.28009
269.412	585.24363
269.747	593.73018
270.082	580.99861
270.418	565.06931
270.753	591.60898
271.088	599.03194
271.423	604.33193
271.758	580.99861
272.093	576.75242
272.428	615.9857
272.763	601.15215
273.098	601.15215
273.433	622.33876
273.767	608.57064
274.102	593.73018
274.436	590.54827
274.771	612.80824
275.106	602.21215
275.44	601.15215
275.774	620.22135
276.109	602.21215
276.443	583.12126
276.777	570.38093
277.111	599.03194
277.445	615.9857
277.78	621.28009
278.114	618.10366
278.447	600.09208
278.781	605.39171
279.115	608.57064
279.449	609.63015
279.783	620.22135
280.116	637.15301
280.45	629.74755
280.784	639.26825
281.117	661.4623
281.451	650.89731
281.784	703.65871
282.117	670.96526
282.451	611.74894
282.784	640.32577
283.117	650.89731
283.45	696.2815
283.783	675.18714
284.116	655.12409
284.449	692.06461
284.782	707.87292
285.115	749.96324
285.448	723.66772
285.781	666.74236
286.114	691.01024
286.446	739.44933
286.779	821.31335
287.111	810.8359
287.444	722.61514
287.776	748.9121
288.109	806.6435
288.441	780.42211
288.773	809.78788
289.106	922.69574
289.438	903.91497
289.77	889.29785
290.102	955.00809
290.434	939.37809
290.766	1008.08288
291.098	1054.83235
291.43	1055.8704
291.762	1084.92208
292.094	1109.80273
292.425	1159.50942
292.757	1159.50942
293.089	1201.9129
293.42	1250.46438
293.752	1222.58036
294.083	1251.49676
294.414	1358.72946
294.746	1366.96771
295.077	1383.44
295.408	1491.40836
295.74	1627.87485
296.071	1624.79995
296.402	1558.14071
296.733	1610.44849
297.064	1641.19776
297.395	1706.74905
297.726	1758.9413
298.056	1901.00573
298.387	2025.48591
298.718	2073.39141
299.049	2143.6714
299.379	2096.82457
299.71	2123.3064
300.04	2228.13394
300.371	2250.50751
300.701	2256.60837
301.031	2360.25553
301.362	2450.58788
301.692	2490.14053
302.022	2536.76766
302.352	2604.63266
302.682	2632.97695
303.012	2716.93704
303.342	2855.31979
303.672	2886.59706
304.002	3009.55781
304.332	3067.94057
304.662	3069.95291
304.992	3116.2208
305.321	3132.30681
305.651	3231.75617
305.98	3406.19746
306.31	3427.22054
306.639	3421.21461
306.969	3547.22786
307.298	3507.24894
307.628	3566.20963
307.957	3744.78071
308.286	3762.71213
308.615	3778.64733
308.944	3937.80337
309.273	4036.10774
309.602	4047.02252
309.931	4153.11353
310.26	4198.67927
310.589	4265.00181
310.918	4385.63771
311.247	4555.45192
311.575	4590.95897
311.904	4611.66614
312.233	4757.50013
312.561	4747.65178
312.89	4785.07171
313.218	5073.30439
313.546	5163.72477
313.875	5104.7584
314.203	5186.32551
314.531	5226.61012
314.859	5310.11479
315.188	5335.65484
315.516	5402.44809
315.844	5556.6553
316.172	5558.61978
316.5	5560.58426
316.827	5684.35657
317.155	5790.47152
317.483	5852.38684
317.811	5826.83296
318.138	5859.26711
318.466	6035.27018
318.794	6050.02539
319.121	6093.31369
319.449	6254.75232
319.776	6360.1672
320.103	6422.26855
320.431	6449.87773
320.758	6565.30384
321.085	6520.89771
321.412	6593.92887
321.739	6635.39669
322.066	6538.65842
322.393	6593.92887
322.72	6741.10001
323.047	6887.44856
323.374	6997.3187
323.701	7023.06742
324.028	6967.61492
324.354	7108.27195
324.681	7142.96369
325.008	7205.43096
325.334	7397.96154
325.661	7405.90622
325.987	7517.17251
326.314	7581.77974
326.64	7517.17251
326.966	7664.31047
327.293	7665.30502
327.619	7711.05956
327.945	7952.90358
328.271	7951.90793
328.597	7825.48584
328.923	7798.61578
329.249	7854.34923
329.575	7892.17458
329.901	7864.3028
330.227	8083.35288
330.552	8136.13895
330.878	7979.78691
331.204	8015.63412
331.529	8010.65517
331.855	8144.10697
332.18	8256.66059
332.506	8158.05117
332.831	8124.18705
333.156	8335.35
333.482	8464.82857
333.807	8453.87358
334.132	8617.17499
334.457	8606.22405
334.782	8468.81216
335.107	8614.18841
335.432	8755.51842
335.757	8839.0825
336.082	8889.80082
336.407	8881.84591
336.732	8856.98463
337.057	8915.65184
337.381	9035.90618
337.706	9063.72046
338.031	9113.37559
338.355	9167.9758
338.68	9171.94587
339.004	9149.11639
339.329	9222.5536
339.653	9236.44243
339.977	9175.91581
340.301	9176.90828
340.626	9188.8173
340.95	9322.71671
341.274	9444.58343
341.598	9397.04106
341.922	9462.40663
342.246	9656.29307
342.57	9689.89062
342.894	9699.77021
343.218	9767.91414
343.541	9819.23982
343.865	9914.91553
344.189	10042.02335
344.512	10157.18395
344.836	10154.23251
345.159	10123.73007
345.483	10070.57804
345.806	10040.05379
346.13	10208.33109
346.453	10239.79604
346.776	10115.85721
347.099	10358.70741
347.423	10400.94227
347.746	10199.48019
348.069	10364.60132
348.392	10448.07552
348.715	10331.19947
349.038	10394.06759
349.361	10561.93311
349.683	10743.4182
350.006	10730.6676
350.329	10723.80181
350.652	10843.45758
350.974	10838.5537
351.297	10843.45758
351.619	10889.55518
351.942	11073.01655
352.264	11081.84974
352.587	11055.35141
352.909	11255.67794
353.231	11300.89645
353.554	11252.72962
353.876	11258.62635
354.198	11378.60717
354.52	11468.21839
354.842	11488.9144
355.164	11630.03426
355.486	11636.9515
355.808	11564.85875
356.13	11560.9112
356.452	11595.46175
356.773	11528.35407
357.095	11311.71276
357.417	11301.8797
357.738	11408.13712
358.06	11617.19041
358.381	11608.30035
358.703	11496.80035
359.024	11557.9507
359.346	11516.51953
359.667	11554.99037
359.988	11597.43672
360.309	11705.18691
360.631	11861.82298
360.952	11895.60725
361.273	11899.5838
361.594	12053.01124
361.915	12158.01881
362.236	12150.0061
362.557	12192.09585
362.878	12164.02968
363.198	12029.05644
363.519	11967.24993
363.84	12131.98498
364.16	12189.08754
364.481	12163.02779
364.802	12078.98158
365.122	12155.0138
365.443	12319.72623
365.763	12185.07691
366.083	12120.97711
366.404	12033.04773
366.724	11981.19677
367.044	11995.14907
367.364	11884.67383
367.685	11954.30415
368.005	11993.15555
368.325	12099.97256
368.645	12220.18778
368.965	12068.99059
369.284	12003.1243
369.604	12052.01279
369.924	12232.23519
370.244	12391.32516
370.564	12456.02344
370.883	12528.99391
371.203	12579.78562
371.522	12524.93477
371.842	12738.89175
372.161	12853.72534
372.481	12732.75425
372.8	12812.65516
373.119	12619.47126
373.439	12709.2406
373.758	12804.44888
374.077	12561.48936
374.396	12535.08377
374.715	12469.18404
375.034	12260.36473
375.353	11928.42633
375.672	11494.82877
375.991	11046.51943
376.31	10578.61429
376.629	10274.20225
376.948	10586.46389
377.266	11013.15744
377.585	11275.3356
377.904	11779.46844
378.222	12211.15539
378.541	12629.65676
378.859	13063.14165
379.178	13239.72517
379.496	13119.1183
379.814	12904.12418
380.133	12820.86403
380.451	12704.13176
380.769	12499.57916
381.087	12380.22041
381.405	12298.58363
381.723	12385.26747
382.041	12483.36415
382.359	12501.60672
382.677	12556.40932
382.995	12624.56351
383.313	12667.37772
383.631	12590.97293
383.949	12497.55175
384.266	12682.68558
384.584	12997.97649
384.901	12902.0652
385.219	12835.23576
385.537	12947.39978
385.854	12860.91926
386.171	12864.00297
386.489	13077.64354
386.806	12996.94337
387.123	12975.25686
387.441	13072.46344
387.758	12974.2246
388.075	12792.14431
388.392	12632.71318
388.709	12495.52449
389.026	12459.05993
389.343	12574.70205
389.66	12704.13176
389.977	12774.7228
390.294	12725.59566
390.61	12992.81127
390.927	13144.03176
391.244	12765.50437
391.56	12614.38
391.877	12738.89175
392.193	12774.7228
392.51	12685.74824
392.826	12666.35752
393.143	12723.55072
393.459	12721.50593
393.775	12779.84556
394.092	12746.054
394.408	12800.34671
394.724	13046.57724
395.04	13070.39166
395.356	13051.75256
395.672	13425.6584
395.988	13510.56026
396.304	13564.09195
396.62	13740.71445
396.936	13842.77789
397.252	13841.72577
397.567	13877.49407
397.883	14078.09363
398.199	13954.24947
398.514	13819.63034
398.83	13835.41298
399.146	13832.25652
399.461	13912.20044
399.777	13631.33521
400.092	13505.31495
400.407	13568.29265
400.723	13256.39748
401.038	13124.30685
401.353	13078.67967
401.668	13026.9198
401.983	12996.94337
402.298	12887.65681
402.613	12719.46131
402.928	12707.19694
403.243	12611.32572
403.558	12582.83623
403.873	12782.9197
404.188	12688.81126
404.503	12587.92138
404.817	12657.17748
405.132	12708.21875
405.447	12810.60335
405.761	12744.00744
406.076	12646.98123
406.39	12738.89175
406.705	12814.70713
407.019	12933.99743
407.334	13142.99328
407.648	13121.19361
407.962	12771.64963
408.276	12710.26249
408.591	12823.94302
408.905	12792.14431
409.219	13076.60744
409.533	13119.1183
409.847	12989.71261
410.161	13035.19492
410.475	13139.87804
410.789	13286.63771
411.102	13005.20945
411.416	12854.75292
411.73	13018.64717
412.044	13012.44433
412.357	12919.57167
412.671	12850.64284
412.984	12993.84424
413.298	12970.09597
413.611	12808.5517
413.925	12797.27051
414.238	12819.83778
414.552	12787.01912
414.865	12719.46131
415.178	12732.75425
415.491	12561.48936
415.804	12466.14641
416.118	12540.15973
416.431	12362.05852
416.744	12258.35459
417.057	12408.49579
417.37	12492.48389
417.683	12219.18405
417.995	12101.9724
418.308	12173.04817
418.621	12226.21088
418.934	12188.08483
419.246	12365.08468
419.559	12662.2771
419.872	12659.21721
420.184	12767.55263
420.497	12858.86365
420.809	12996.94337
421.121	12817.7854
421.434	12552.34598
421.746	12620.48963
422.058	12638.82711
422.371	12495.52449
422.683	12310.66321
422.995	11988.17223
423.307	11984.18608
423.619	12191.09305
423.931	12117.97562
424.243	12002.1273
424.555	11847.92023
424.867	11726.96354
425.179	11634.97505
425.491	11688.36642
425.802	11698.2601
426.114	11645.84645
426.426	11628.05808
426.737	11634.97505
427.049	11554.00362
427.361	11548.0835
427.672	11486.94307
427.984	11279.2676
428.295	11387.46496
428.606	11495.81455
428.918	11324.49734
429.229	11263.54055
429.54	11222.26841
429.851	11031.80029
430.163	10858.16935
430.474	10811.0921
430.785	10969.0087
431.096	11058.29549
431.407	11139.76773
431.718	11176.10074
432.029	10987.64843
432.339	10922.90429
432.65	10946.44626
432.961	10962.14171
433.272	10942.5225
433.582	11071.05367
433.893	11142.7133
434.204	11019.0445
434.514	11041.61294
434.825	10969.0087
435.135	10811.0921
435.446	10865.0349
435.756	11060.25823
436.066	11085.77574
436.377	11034.74404
436.687	11095.59113
436.997	11205.5674
437.307	11214.40881
437.617	11154.49617
437.927	11053.38871
438.237	11121.11386
438.547	11258.62635
438.857	11236.02402
439.167	11356.95899
439.477	11306.7961
439.787	11263.54055
440.097	11335.31651
440.407	11306.7961
440.716	11031.80029
441.026	10992.55382
441.336	11140.74958
441.645	10969.0087
441.955	10831.68828
442.264	10784.6113
442.574	10962.14171
442.883	10832.66905
443.192	10704.18483
443.502	10910.15291
443.811	10910.15291
444.12	10823.8421
444.429	10610.99246
444.739	10586.46389
445.048	10639.44313
445.357	10581.55791
445.666	10687.50985
445.975	10633.55699
446.284	10512.8641
446.593	10368.53047
446.901	10387.19261
447.21	10559.97054
447.519	10482.43576
447.828	10425.49244
448.136	10401.92435
448.445	10640.42414
448.754	10723.80181
449.062	10462.8021
449.371	10455.92984
449.679	10536.41853
449.988	10719.87846
450.296	11120.13214
450.605	11542.16398
450.913	11808.22435
451.221	12142.99667
451.529	12453.9993
451.838	12305.62944
452.146	11931.41131
452.454	11737.85572
452.762	11747.75997
453.07	11541.17745
453.378	11312.69612
453.686	11252.72962
453.994	11267.47208
454.302	11078.90529
454.609	10686.52896
454.917	10562.91438
455.225	10457.89337
455.533	10293.85905
455.84	10304.66912
456.148	10400.94227
456.455	10198.49672
456.763	10171.94009
457.07	10489.30707
457.378	10495.19658
457.685	10358.70741
457.993	10324.32169
458.3	10540.34403
458.607	10814.03441
458.915	10801.28441
459.222	10883.67024
459.529	10836.59215
459.836	10714.97425
460.143	10621.78439
460.45	10519.7344
460.757	10549.17616
461.064	10628.65179
461.371	10552.12013
461.678	10547.21349
461.985	10723.80181
462.292	10898.38269
462.598	11320.56343
462.905	11572.7547
463.212	11726.96354
463.518	11929.4213
463.825	12151.00758
464.131	12669.41825
464.438	12721.50593
464.744	12396.37424
465.051	12199.1164
465.357	12194.10156
465.664	12086.97656
465.97	11587.56259
466.276	11488.9144
466.582	11445.55871
466.889	11342.20215
467.195	11714.0943
467.501	12251.32018
467.807	12960.80885
468.113	13743.87085
468.419	14366.4153
468.725	14788.09019
469.031	15128.58503
469.337	15232.39463
469.642	14991.13454
469.948	14683.8718
470.254	14568.68445
470.56	14078.09363
470.865	13475.95163
471.171	13209.52883
471.477	12817.7854
471.782	12341.8924
472.088	11975.21889
472.393	12039.03555
472.698	11712.11473
473.004	11310.72941
473.309	11622.12998
473.614	11971.23419
473.92	12262.37501
474.225	12396.37424
474.53	12205.1353
474.835	12149.00466
475.14	11942.35828
475.445	11682.43119
475.75	11297.94677
476.055	10927.80876
476.36	10775.78432
476.665	10371.47727
476.97	10064.67076
477.275	10132.58641
477.58	10278.13383
477.885	10179.80931
478.189	9969.12676
478.494	9878.43081
478.799	9835.02732
479.103	9935.61756
479.408	9961.24317
479.712	9923.78831
480.017	10040.05379
480.321	10147.34553
480.625	10287.9623
480.93	10567.82071
481.234	11013.15744
481.538	11469.20377
481.843	11837.00002
482.147	12081.97947
482.451	12287.51511
482.755	12493.49738
483.059	12519.86172
483.363	12538.12923
483.667	12813.68113
483.971	12903.09467
484.275	12726.6182
484.579	12864.00297
484.883	12947.39978
485.187	12762.43229
485.49	12694.93837
485.794	12528.99391
486.098	12487.41699
486.401	12397.38417
486.705	12102.97237
487.009	12064.99504
487.312	12198.11337
487.616	12175.05263
487.919	11906.54378
488.222	11826.08274
488.526	11863.80948
488.829	11815.16836
489.132	11900.57801
489.436	11792.35662
489.739	11744.78847
490.042	11805.24869
490.345	11745.77895
490.648	11774.51248
490.951	11806.24055
491.254	11962.27024
491.557	12155.0138
491.86	12232.23519
492.163	12443.88086
492.466	12740.9379
492.769	13159.61338
493.072	13528.39831
493.375	13795.42916
493.677	13819.63034
493.98	13882.75334
494.283	13747.0273
494.585	13210.5696
494.888	13052.78774
495.19	12912.36172
495.493	12787.01912
495.795	12542.19038
496.098	12298.58363
496.4	12263.3802
496.702	12046.02267
497.005	12054.00973
497.307	12120.97711
497.609	11941.36296
497.911	11911.51597
498.213	11871.75649
498.515	11693.313
498.818	11688.36642
499.12	11841.96338
499.422	11770.54812
499.723	11695.29178
500.025	11684.40952
500.327	11593.48685
500.629	11786.40775
500.931	11960.27855
501.233	11786.40775
501.534	11652.76583
501.836	11646.83488
502.138	11834.02229
502.439	11951.31731
502.741	11929.4213
503.042	11882.68627
503.344	11761.62961
503.645	11930.41629
503.947	11910.52148
504.248	11886.66149
504.55	11993.15555
504.851	11877.71781
505.152	11984.18608
505.453	11959.28275
505.755	11840.97066
506.056	11700.23908
506.357	11668.58513
506.658	11768.56607
506.959	11758.65718
507.26	11908.53258
507.561	11826.08274
507.862	11665.61863
508.163	11661.66357
508.464	11651.77729
508.764	11626.08197
509.065	11552.03018
509.366	11610.27579
509.667	11746.76945
509.967	11653.75439
510.268	11561.89806
510.569	11613.23909
510.869	11521.45031
511.17	11446.54376
511.47	11529.34038
511.771	11362.86246
512.071	11338.26743
512.371	11434.72412
512.672	11274.35262
512.972	11351.05594
513.272	11343.18586
513.573	11273.36966
513.873	11429.79986
514.173	11368.76636
514.473	11243.88515
514.773	11171.1903
515.073	11229.146
515.373	11232.09367
515.673	11118.16872
515.973	11017.08213
516.273	10943.50344
516.573	10882.68942
516.873	10736.55252
517.172	10835.61137
517.472	10845.41914
517.772	10824.82287
518.072	10975.87583
518.371	10935.65602
518.671	10773.82276
518.97	10871.90051
519.27	10879.74698
