Data from white_1_6_ST026791__129__22488.txt Node

Date: Tue Aug 19 16:20:27 AEST 2025
User: mathewyoussef
Spectrometer: ST02679
Trigger mode: 0
Integration Time (sec): 6.653700E-1
Scans to average: 1
Nonlinearity correction enabled: true
Boxcar width: 0
Storing dark spectrum: false
XAxis mode: Wavelengths
Number of Pixels in Spectrum: 1516
>>>>>Begin Spectral Data<<<<<
187.304	603.27207
187.653	638.21066
188.002	655.12409
188.351	609.63015
188.7	590.54827
189.048	585.24363
189.397	603.27207
189.746	607.51107
190.094	599.03194
190.443	600.09208
190.791	604.33193
191.14	617.04472
191.488	574.62889
191.837	573.56701
192.185	613.86746
192.533	606.45143
192.881	610.68958
193.229	607.51107
193.577	621.28009
193.925	611.74894
194.273	602.21215
194.621	606.45143
194.969	591.60898
195.317	577.81408
195.664	575.69069
196.012	577.81408
196.359	577.81408
196.707	605.39171
197.054	609.63015
197.402	614.92662
197.749	593.73018
198.096	587.3657
198.443	595.8511
198.791	579.93717
199.138	572.50506
199.485	589.48748
199.832	605.39171
200.179	576.75242
200.525	570.38093
200.872	601.15215
201.219	622.33876
201.566	612.80824
201.912	606.45143
202.259	582.05997
202.605	575.69069
202.952	582.05997
203.298	589.48748
203.644	597.97173
203.991	594.79068
204.337	594.79068
204.683	577.81408
205.029	549.12314
205.375	571.44303
205.721	613.86746
206.067	618.10366
206.413	630.80567
206.759	607.51107
207.104	582.05997
207.45	578.87566
207.796	587.3657
208.141	611.74894
208.487	614.92662
208.832	595.8511
209.177	568.25651
209.523	567.19418
209.868	583.12126
210.213	587.3657
210.558	575.69069
210.903	592.66961
211.248	604.33193
211.593	594.79068
211.938	574.62889
212.283	603.27207
212.628	619.16254
212.973	586.3047
213.317	589.48748
213.662	599.03194
214.007	614.92662
214.351	609.63015
214.696	613.86746
215.04	605.39171
215.384	576.75242
215.729	601.15215
216.073	622.33876
216.417	621.28009
216.761	619.16254
217.105	610.68958
217.449	621.28009
217.793	597.97173
218.137	567.19418
218.481	605.39171
218.824	631.86373
219.168	602.21215
219.512	597.97173
219.855	578.87566
220.199	540.61148
220.542	570.38093
220.886	609.63015
221.229	619.16254
221.572	605.39171
221.916	605.39171
222.259	612.80824
222.602	582.05997
222.945	568.25651
223.288	564.00676
223.631	565.06931
223.974	583.12126
224.317	584.18248
224.659	593.73018
225.002	607.51107
225.345	599.03194
225.687	602.21215
226.03	620.22135
226.372	584.18248
226.715	583.12126
227.057	606.45143
227.4	604.33193
227.742	625.51436
228.084	627.63109
228.426	621.28009
228.768	611.74894
229.11	585.24363
229.452	583.12126
229.794	590.54827
230.136	585.24363
230.478	587.3657
230.82	584.18248
231.161	592.66961
231.503	651.95411
231.845	651.95411
232.186	658.29348
232.528	651.95411
232.869	569.31875
233.21	562.94414
233.552	579.93717
233.893	555.50366
234.234	542.73986
234.575	573.56701
234.916	605.39171
235.257	591.60898
235.598	569.31875
235.939	582.05997
236.28	595.8511
236.621	606.45143
236.961	620.22135
237.302	592.66961
237.643	566.13178
237.983	595.8511
238.324	582.05997
238.664	615.9857
239.005	638.21066
239.345	586.3047
239.685	587.3657
240.025	586.3047
240.366	594.79068
240.706	612.80824
241.046	613.86746
241.386	593.73018
241.726	578.87566
242.066	602.21215
242.405	586.3047
242.745	578.87566
243.085	596.91145
243.425	585.24363
243.764	607.51107
244.104	650.89731
244.443	620.22135
244.783	576.75242
245.122	565.06931
245.461	571.44303
245.801	609.63015
246.14	613.86746
246.479	611.74894
246.818	572.50506
247.157	602.21215
247.496	636.09528
247.835	568.25651
248.174	560.81866
248.513	584.18248
248.852	627.63109
249.19	627.63109
249.529	595.8511
249.868	623.39736
250.206	607.51107
250.545	570.38093
250.883	583.12126
251.221	592.66961
251.56	593.73018
251.898	606.45143
252.236	619.16254
252.574	590.54827
252.912	580.99861
253.25	593.73018
253.588	576.75242
253.926	587.3657
254.264	602.21215
254.602	621.28009
254.94	607.51107
255.278	554.44043
255.615	560.81866
255.953	575.69069
256.29	586.3047
256.628	580.99861
256.965	566.13178
257.303	593.73018
257.64	642.44061
257.977	636.09528
258.314	595.8511
258.652	576.75242
258.989	602.21215
259.326	629.74755
259.663	615.9857
260	592.66961
260.337	594.79068
260.673	595.8511
261.01	584.18248
261.347	614.92662
261.684	592.66961
262.02	574.62889
262.357	612.80824
262.693	633.97964
263.03	638.21066
263.366	603.27207
263.702	591.60898
264.039	607.51107
264.375	592.66961
264.711	597.97173
265.047	615.9857
265.383	613.86746
265.719	612.80824
266.055	621.28009
266.391	642.44061
266.727	617.04472
267.063	589.48748
267.399	602.21215
267.734	591.60898
268.07	580.99861
268.405	591.60898
268.741	613.86746
269.076	609.63015
269.412	578.87566
269.747	593.73018
270.082	587.3657
270.418	588.42663
270.753	608.57064
271.088	591.60898
271.423	603.27207
271.758	613.86746
272.093	630.80567
272.428	615.9857
272.763	603.27207
273.098	604.33193
273.433	588.42663
273.767	624.4559
274.102	605.39171
274.436	570.38093
274.771	584.18248
275.106	582.05997
275.44	599.03194
275.774	601.15215
276.109	583.12126
276.443	586.3047
276.777	591.60898
277.111	624.4559
277.445	614.92662
277.78	606.45143
278.114	641.38322
278.447	596.91145
278.781	554.44043
279.115	586.3047
279.449	603.27207
279.783	599.03194
280.116	593.73018
280.45	586.3047
280.784	627.63109
281.117	648.78353
281.451	609.63015
281.784	680.46307
282.117	689.9558
282.451	623.39736
282.784	605.39171
283.117	612.80824
283.45	656.18062
283.783	643.49793
284.116	650.89731
284.449	658.29348
284.782	686.79211
285.115	757.31963
285.448	743.65557
285.781	682.573
286.114	655.12409
286.446	685.73743
286.779	784.61975
287.111	778.32297
287.444	688.9013
287.776	691.01024
288.109	751.01432
288.441	768.87417
288.773	756.26888
289.106	862.12812
289.438	912.26372
289.77	852.71586
290.102	874.67187
290.434	908.0897
290.766	1015.35986
291.098	1009.12256
291.43	974.79297
291.762	1014.3204
292.094	1018.47801
292.425	1078.69895
292.757	1074.54953
293.089	1120.16418
293.42	1163.64849
293.752	1191.57501
294.083	1290.70817
294.414	1308.23858
294.746	1328.85378
295.077	1425.62546
295.408	1498.5986
295.74	1578.65879
296.071	1577.63304
296.402	1561.21886
296.733	1637.09869
297.064	1683.19878
297.395	1769.17066
297.726	1848.91181
298.056	1918.36277
298.387	1984.69357
298.718	2020.38797
299.049	2095.80587
299.379	2074.41038
299.71	2036.7003
300.04	2111.08505
300.371	2142.65327
300.701	2203.71967
301.031	2371.42552
301.362	2408.98633
301.692	2446.53012
302.022	2500.27915
302.352	2547.91363
302.682	2598.55756
303.012	2598.55756
303.342	2711.88178
303.672	2800.80521
304.002	2853.30145
304.332	2944.07199
304.662	3053.85259
304.992	3110.18759
305.321	3113.20426
305.651	3239.78623
305.98	3348.09992
306.31	3358.12028
306.639	3393.17991
306.969	3420.21357
307.298	3442.23305
307.628	3538.23465
307.957	3676.00078
308.286	3793.5833
308.615	3846.33184
308.944	3906.00027
309.273	4029.16115
309.602	4059.91981
309.931	4063.88777
310.26	4170.94665
310.589	4287.75728
310.918	4359.94204
311.247	4528.81394
311.575	4513.02527
311.904	4534.73407
312.233	4691.50202
312.561	4701.35464
312.89	4855.94568
313.218	5052.6605
313.546	5082.15123
313.875	5042.82942
314.203	5045.77879
314.531	5146.03612
314.859	5158.81136
315.188	5177.48193
315.516	5398.51919
315.844	5475.13151
316.172	5524.24184
316.5	5638.18478
316.827	5660.77899
317.155	5666.67328
317.483	5749.20115
317.811	5771.801
318.138	5879.90897
318.466	6041.17214
318.794	5987.07716
319.121	6011.66406
319.449	6145.46961
319.776	6231.11756
320.103	6263.61624
320.431	6365.09492
320.758	6460.72567
321.085	6358.19616
321.412	6462.69811
321.739	6654.16021
322.066	6603.80098
322.393	6639.34668
322.72	6703.55071
323.047	6701.57473
323.374	6848.86764
323.701	6878.54425
324.028	6912.18597
324.354	7075.57075
324.681	7033.96263
325.008	7147.92038
325.334	7386.04527
325.661	7414.84447
325.987	7451.59581
326.314	7537.04918
326.64	7570.84459
326.966	7591.72133
327.293	7671.27244
327.619	7693.15445
327.945	7746.8741
328.271	7847.38193
328.597	7797.62065
328.923	7823.49537
329.249	7783.68918
329.575	7723.99194
329.901	7826.48108
330.227	7970.82559
330.552	8007.66782
330.878	7908.10243
331.204	7980.78263
331.529	8074.38962
331.855	8185.94011
332.18	8298.49567
332.506	8193.90849
332.831	8212.83356
333.156	8296.50353
333.482	8433.9549
333.807	8495.70054
334.132	8626.13457
334.457	8708.74866
334.782	8633.10295
335.107	8762.48333
335.432	8682.87223
335.757	8681.87694
336.082	8837.09327
336.407	8854.99559
336.732	8774.42268
337.057	8810.23677
337.381	8966.3484
337.706	8969.33007
338.031	8956.4091
338.355	9034.91272
338.68	9164.00562
339.004	9063.72046
339.329	9138.19658
339.653	9293.9654
339.977	9176.90828
340.301	9260.24829
340.626	9262.2319
340.95	9314.786
341.274	9475.27716
341.598	9412.89074
341.922	9480.22697
342.246	9520.80699
342.57	9486.16645
342.894	9690.87862
343.218	9755.0788
343.541	9784.69644
343.865	9862.64977
344.189	9993.75934
344.512	10110.93641
344.836	10081.40727
345.159	10037.0994
345.483	10023.3112
345.806	10019.3714
346.13	10178.82568
346.453	10255.52568
346.776	10027.25086
347.099	10272.23642
347.423	10503.04899
347.746	10303.68642
348.069	10482.43576
348.392	10585.4827
348.715	10439.239
349.038	10484.39901
349.361	10475.5642
349.683	10523.66019
350.006	10610.01136
350.329	10653.17708
350.652	10848.36149
350.974	10917.019
351.297	10898.38269
351.619	11027.87536
351.942	11023.95049
352.264	11099.51745
352.587	11236.02402
352.909	11133.87679
353.231	11036.70656
353.554	11096.5727
353.876	11183.95783
354.198	11363.84641
354.52	11469.20377
354.842	11406.1681
355.164	11410.10619
355.486	11350.07214
355.808	11357.94287
356.13	11477.08731
356.452	11487.92873
356.773	11472.15998
357.095	11375.6548
357.417	11262.55769
357.738	11413.0599
358.06	11707.16618
358.381	11619.16618
358.703	11552.03018
359.024	11632.99868
359.346	11667.59628
359.667	11594.47429
359.988	11568.80659
360.309	11691.33431
360.631	11691.33431
360.952	11813.18424
361.273	11824.09809
361.594	11808.22435
361.915	12088.97561
362.236	12177.05723
362.557	12171.04383
362.878	12196.1074
363.198	11946.3398
363.519	11954.30415
363.84	12151.00758
364.16	12123.97888
364.481	12175.05263
364.802	12169.03963
365.122	12225.20695
365.443	12262.37501
365.763	12140.99426
366.083	12078.98158
366.404	11989.16884
366.724	11922.4571
367.044	11905.54942
367.364	11871.75649
367.685	11964.26203
368.005	11917.48346
368.325	11795.33136
368.645	11941.36296
368.965	11984.18608
369.284	11834.02229
369.604	12060.99996
369.924	12328.79213
370.244	12389.30578
370.564	12406.47516
370.883	12379.2111
371.203	12436.80019
371.522	12491.47043
371.842	12843.45174
372.161	12908.24263
372.481	12629.65676
372.8	12643.92314
373.119	12618.45293
373.439	12600.12973
373.758	12692.89584
374.077	12633.73207
374.396	12548.28328
374.715	12472.22201
375.034	12257.34957
375.353	11921.46232
375.672	11628.05808
375.991	11094.60957
376.31	10576.65185
376.629	10337.09445
376.948	10467.7107
377.266	10910.15291
377.585	11216.37366
377.904	11709.14554
378.222	12334.83766
378.541	12711.28442
378.859	13033.1259
379.178	13260.56689
379.496	13192.88127
379.814	12909.27234
380.133	12655.13791
380.451	12690.85347
380.769	12537.11404
381.087	12296.57085
381.405	12242.27839
381.723	12282.48535
382.041	12516.81835
382.359	12636.78897
382.677	12587.92138
382.995	12692.89584
383.313	12679.62329
383.631	12517.83277
383.949	12538.12923
384.266	12759.36058
384.584	12870.17148
384.901	12719.46131
385.219	12789.06908
385.537	12806.50021
385.854	12694.93837
386.171	12691.87463
386.489	12880.45556
386.806	13045.54229
387.123	12886.62794
387.441	12767.55263
387.758	12689.83234
388.075	12590.97293
388.392	12542.19038
388.709	12497.55175
389.026	12541.17503
389.343	12584.87017
389.66	12675.54079
389.977	12732.75425
390.294	12646.98123
390.61	12748.10072
390.927	12982.48377
391.244	12891.77269
391.56	12742.98422
391.877	12715.37254
392.193	12722.5283
392.51	12767.55263
392.826	12680.64402
393.143	12638.82711
393.459	12665.33735
393.775	12776.77178
394.092	12847.56069
394.408	12937.08969
394.724	13043.47251
395.04	13053.82296
395.356	13068.32004
395.672	13437.17878
395.988	13615.56933
396.304	13627.13066
396.62	13753.3403
396.936	13826.99567
397.252	13855.40282
397.567	13852.24667
397.883	13993.11939
398.199	13810.16042
398.514	13686.01224
398.83	13755.44466
399.146	13651.30968
399.461	13571.44336
399.777	13512.65853
400.092	13520.00317
400.407	13631.33521
400.723	13392.16292
401.038	13005.20945
401.353	12977.32149
401.668	12994.87724
401.983	12791.11919
402.298	12722.5283
402.613	12618.45293
402.928	12587.92138
403.243	12615.39817
403.558	12715.37254
403.873	12949.46228
404.188	12850.64284
404.503	12641.88461
404.817	12568.60306
405.132	12502.62056
405.447	12618.45293
405.761	12745.0307
406.076	12620.48963
406.39	12724.57317
406.705	12860.91926
407.019	12958.74548
407.334	13004.17606
407.648	12880.45556
407.962	12776.77178
408.276	12795.21991
408.591	12614.38
408.905	12579.78562
409.219	12970.09597
409.533	13047.61223
409.847	13036.22948
410.161	13082.82459
410.475	13205.3661
410.789	13177.28239
411.102	12982.48377
411.416	12994.87724
411.73	13121.19361
412.044	13177.28239
412.357	12987.64703
412.671	12916.48145
412.984	13050.71742
413.298	12953.58775
413.611	12823.94302
413.925	12909.27234
414.238	12865.03096
414.552	12850.64284
414.865	12717.41684
415.178	12512.76107
415.491	12417.59045
415.804	12336.85312
416.118	12352.98198
416.431	12279.46792
416.744	12206.13857
417.057	12227.21485
417.37	12351.97366
417.683	12146.00052
417.995	11968.24596
418.308	12181.06681
418.621	12456.02344
418.934	12258.35459
419.246	12048.01926
419.559	12341.8924
419.872	12628.63803
420.184	12755.26552
420.497	12722.5283
420.809	12842.4246
421.121	12745.0307
421.434	12577.75208
421.746	12649.02016
422.058	12636.78897
422.371	12381.22975
422.683	12305.62944
422.995	12062.99744
423.307	11913.50503
423.619	12087.97607
423.931	12009.10692
424.243	12017.08534
424.555	11889.64318
424.867	11708.15585
425.179	11700.23908
425.491	11661.66357
425.802	11554.00362
426.114	11501.72956
426.426	11448.5139
426.737	11545.12366
427.049	11599.41176
427.361	11633.98685
427.672	11685.39871
427.984	11431.76952
428.295	11348.10457
428.606	11354.99126
428.918	11316.62969
429.229	11393.37071
429.54	11212.444
429.851	10888.57436
430.163	10840.51525
430.474	10877.78535
430.785	10981.76207
431.096	10998.4404
431.407	11028.85659
431.718	11148.60461
432.029	10869.9389
432.339	10830.7075
432.65	11038.6691
432.961	10921.9234
433.272	10815.99595
433.582	10934.67511
433.893	10867.9773
434.204	10827.76519
434.514	10974.8948
434.825	10805.20749
435.135	10672.79615
435.446	10852.28462
435.756	11107.37035
436.066	11279.2676
436.377	11289.09828
436.687	11181.01137
436.997	11051.42604
437.307	11104.42547
437.617	11179.04709
437.927	11035.7253
438.237	11072.03511
438.547	11058.29549
438.857	11061.23961
439.167	11329.41498
439.477	11345.15331
439.787	11284.18281
440.097	11208.51447
440.407	11102.46224
440.716	10949.3891
441.026	10946.44626
441.336	11080.86825
441.645	10943.50344
441.955	10818.93825
442.264	10903.28692
442.574	11106.38872
442.883	10921.9234
443.192	10788.5344
443.502	10960.17974
443.811	10763.03414
444.12	10815.01518
444.429	10798.34211
444.739	10588.42625
445.048	10612.95466
445.357	10543.28811
445.666	10572.72693
445.975	10516.79001
446.284	10517.77148
446.593	10421.56465
446.901	10230.94729
447.21	10378.35292
447.519	10382.28173
447.828	10343.97163
448.136	10374.42401
448.445	10567.82071
448.754	10635.51905
449.062	10486.36225
449.371	10467.7107
449.679	10719.87846
449.988	11043.57552
450.296	11264.52341
450.605	11412.07532
450.913	11735.87513
451.221	12333.82998
451.529	12581.81932
451.838	12225.20695
452.146	11699.24958
452.454	11757.66642
452.762	11892.6251
453.07	11508.6311
453.378	11209.49684
453.686	11231.11111
453.994	11329.41498
454.302	11129.94962
454.609	10702.2231
454.917	10442.18455
455.225	10386.21044
455.533	10310.56517
455.84	10353.79564
456.148	10326.2868
456.455	10061.717
456.763	10177.84205
457.07	10417.63677
457.378	10449.05733
457.685	10506.97509
457.993	10485.38063
458.3	10543.28811
458.607	10639.44313
458.915	10699.28048
459.222	10917.019
459.529	10946.44626
459.836	10893.47851
460.143	10566.83945
460.45	10321.37398
460.757	10397.01392
461.064	10449.05733
461.371	10531.51156
461.678	10522.67875
461.985	10661.02483
462.292	10884.65106
462.598	11192.79765
462.905	11528.35407
463.212	11769.55708
463.518	11956.29551
463.825	12154.0122
464.131	12662.2771
464.438	12823.94302
464.744	12394.3545
465.051	12171.04383
465.357	12232.23519
465.664	12080.98014
465.97	11639.91631
466.276	11570.78061
466.582	11472.15998
466.889	11365.81436
467.195	11695.29178
467.501	12106.97255
467.807	12866.05898
468.113	13744.923
468.419	14424.04181
468.725	14817.19153
469.031	15115.44493
469.337	15221.60691
469.642	14890.03857
469.948	14486.4608
470.254	14390.1181
470.56	14010.96845
470.865	13316.90511
471.171	13011.41066
471.477	12751.17111
471.782	12258.35459
472.088	11918.47814
472.393	11921.46232
472.698	11600.39931
473.004	11330.39854
473.309	11556.96391
473.614	11872.74998
473.92	12275.44516
474.225	12316.70491
474.53	12285.5031
474.835	12273.43399
475.14	11842.95613
475.445	11617.19041
475.75	11385.49648
476.055	10986.66736
476.36	10749.30302
476.665	10318.4262
476.97	10021.34132
477.275	10139.47423
477.58	10226.03106
477.885	10172.92377
478.189	10016.41647
478.494	9898.15382
478.799	9727.42814
479.103	9796.54116
479.408	9926.74575
479.712	9950.4023
480.017	10028.23575
480.321	10164.07037
480.625	10344.95406
480.93	10485.38063
481.234	10950.37006
481.538	11397.30814
481.843	11717.0638
482.147	11914.4996
482.451	12154.0122
482.755	12489.44363
483.059	12393.34468
483.363	12452.98729
483.667	12685.74824
483.971	12614.38
484.275	12475.26032
484.579	12727.64077
484.883	13058.99963
485.187	12883.54157
485.49	12643.92314
485.794	12414.55857
486.098	12377.19261
486.401	12398.39413
486.705	12265.39068
487.009	12127.98168
487.312	12056.00679
487.616	12042.02986
487.919	11848.91312
488.222	11710.13525
488.526	11749.74108
488.829	11830.05232
489.132	11866.78942
489.436	11800.28974
489.739	11766.58411
490.042	11851.89195
490.345	11800.28974
490.648	11730.92403
490.951	11735.87513
491.254	11869.76959
491.557	12048.01926
491.86	12188.08483
492.163	12606.23604
492.466	12887.65681
492.769	13225.14402
493.072	13629.23291
493.375	13772.27996
493.677	13871.18264
493.98	13898.52967
494.283	13627.13066
494.585	13300.20255
494.888	13037.26408
495.19	12893.83087
495.493	12882.51286
495.795	12542.19038
496.098	12333.82998
496.4	12204.13207
496.702	11916.48881
497.005	11846.92736
497.307	11891.6311
497.609	11849.90604
497.911	11725.97347
498.213	11741.81716
498.515	11829.05989
498.818	11790.37357
499.12	11780.4597
499.422	11641.89295
499.723	11651.77729
500.025	11794.33976
500.327	11737.85572
500.629	11870.76303
500.931	11855.86406
501.233	11700.23908
501.534	11681.44205
501.836	11615.21471
502.138	11749.74108
502.439	11867.78279
502.741	11772.53025
503.042	11749.74108
503.344	11734.88486
503.645	11904.55508
503.947	11982.19318
504.248	11832.03726
504.55	11755.68495
504.851	11925.44159
505.152	12081.97947
505.453	11917.48346
505.755	11945.34438
506.056	11928.42633
506.357	11769.55708
506.658	11741.81716
506.959	11690.34499
507.26	11818.14473
507.561	11778.4772
507.862	11669.57401
508.163	11643.86966
508.464	11555.97713
508.764	11707.16618
509.065	11614.22689
509.366	11537.2315
509.667	11592.49943
509.967	11506.65916
510.268	11529.34038
510.569	11656.72018
510.869	11614.22689
511.17	11434.72412
511.47	11463.29173
511.771	11326.46436
512.071	11273.36966
512.371	11425.8607
512.672	11232.09367
512.972	11211.4616
513.272	11431.76952
513.573	11218.33854
513.873	11108.35199
514.173	11237.00663
514.473	11236.02402
514.773	11295.98037
515.073	11262.55769
515.373	11098.53586
515.673	11022.96928
515.973	10912.11464
516.273	10969.98971
516.573	11073.01655
516.873	10986.66736
517.172	10848.36149
517.472	10693.3952
517.772	10764.99571
518.072	10845.41914
518.371	10839.53447
518.671	10724.78264
518.97	10704.18483
519.27	10789.51517
