Data from white_1_6_ST026791__15__22374.txt Node

Date: Tue Aug 19 16:17:52 AEST 2025
User: mathewyoussef
Spectrometer: ST02679
Trigger mode: 0
Integration Time (sec): 6.653700E-1
Scans to average: 1
Nonlinearity correction enabled: true
Boxcar width: 0
Storing dark spectrum: false
XAxis mode: Wavelengths
Number of Pixels in Spectrum: 1516
>>>>>Begin Spectral Data<<<<<
187.304	614.92662
187.653	662.51844
188.002	628.68935
188.351	540.61148
188.7	561.88144
189.048	597.97173
189.397	641.38322
189.746	637.15301
190.094	606.45143
190.443	611.74894
190.791	596.91145
191.14	569.31875
191.488	556.56681
191.837	561.88144
192.185	565.06931
192.533	586.3047
192.881	606.45143
193.229	596.91145
193.577	619.16254
193.925	615.9857
194.273	588.42663
194.621	611.74894
194.969	621.28009
195.317	610.68958
195.664	630.80567
196.012	619.16254
196.359	589.48748
196.707	574.62889
197.054	554.44043
197.402	590.54827
197.749	610.68958
198.096	596.91145
198.443	584.18248
198.791	559.75581
199.138	570.38093
199.485	596.91145
199.832	600.09208
200.179	608.57064
200.525	612.80824
200.872	580.99861
201.219	586.3047
201.566	629.74755
201.912	611.74894
202.259	613.86746
202.605	604.33193
202.952	593.73018
203.298	619.16254
203.644	609.63015
203.991	618.10366
204.337	623.39736
204.683	580.99861
205.029	572.50506
205.375	590.54827
205.721	629.74755
206.067	613.86746
206.413	562.94414
206.759	585.24363
207.104	583.12126
207.45	583.12126
207.796	606.45143
208.141	589.48748
208.487	586.3047
208.832	614.92662
209.177	604.33193
209.523	603.27207
209.868	619.16254
210.213	577.81408
210.558	557.62989
210.903	597.97173
211.248	587.3657
211.593	584.18248
211.938	611.74894
212.283	633.97964
212.628	629.74755
212.973	586.3047
213.317	577.81408
213.662	583.12126
214.007	586.3047
214.351	572.50506
214.696	584.18248
215.04	561.88144
215.384	559.75581
215.729	597.97173
216.073	582.05997
216.417	592.66961
216.761	610.68958
217.105	611.74894
217.449	607.51107
217.793	587.3657
218.137	591.60898
218.481	603.27207
218.824	620.22135
219.168	608.57064
219.512	572.50506
219.855	558.69289
220.199	560.81866
220.542	579.93717
220.886	589.48748
221.229	604.33193
221.572	607.51107
221.916	596.91145
222.259	575.69069
222.602	579.93717
222.945	603.27207
223.288	594.79068
223.631	567.19418
223.974	559.75581
224.317	580.99861
224.659	601.15215
225.002	604.33193
225.345	578.87566
225.687	573.56701
226.03	603.27207
226.372	629.74755
226.715	610.68958
227.057	583.12126
227.4	611.74894
227.742	650.89731
228.084	638.21066
228.426	600.09208
228.768	580.99861
229.11	564.00676
229.452	572.50506
229.794	602.21215
230.136	604.33193
230.478	590.54827
230.82	564.00676
231.161	557.62989
231.503	618.10366
231.845	636.09528
232.186	663.57452
232.528	647.72654
232.869	609.63015
233.21	631.86373
233.552	605.39171
233.893	596.91145
234.234	588.42663
234.575	590.54827
234.916	627.63109
235.257	648.78353
235.598	625.51436
235.939	613.86746
236.28	588.42663
236.621	582.05997
236.961	623.39736
237.302	651.95411
237.643	606.45143
237.983	590.54827
238.324	623.39736
238.664	623.39736
239.005	611.74894
239.345	611.74894
239.685	637.15301
240.025	602.21215
240.366	579.93717
240.706	608.57064
241.046	643.49793
241.386	623.39736
241.726	587.3657
242.066	597.97173
242.405	592.66961
242.745	626.57276
243.085	642.44061
243.425	624.4559
243.764	624.4559
244.104	655.12409
244.443	659.34982
244.783	603.27207
245.122	579.93717
245.461	583.12126
245.801	579.93717
246.14	580.99861
246.479	573.56701
246.818	560.81866
247.157	610.68958
247.496	660.40609
247.835	614.92662
248.174	577.81408
248.513	582.05997
248.852	626.57276
249.19	648.78353
249.529	618.10366
249.868	603.27207
250.206	600.09208
250.545	607.51107
250.883	606.45143
251.221	607.51107
251.56	591.60898
251.898	577.81408
252.236	593.73018
252.574	596.91145
252.912	564.00676
253.25	585.24363
253.588	627.63109
253.926	607.51107
254.264	587.3657
254.602	586.3047
254.94	589.48748
255.278	585.24363
255.615	589.48748
255.953	589.48748
256.29	588.42663
256.628	607.51107
256.965	593.73018
257.303	584.18248
257.64	622.33876
257.977	626.57276
258.314	606.45143
258.652	605.39171
258.989	606.45143
259.326	604.33193
259.663	611.74894
260	600.09208
260.337	593.73018
260.673	589.48748
261.01	577.81408
261.347	586.3047
261.684	605.39171
262.02	613.86746
262.357	603.27207
262.693	584.18248
263.03	586.3047
263.366	592.66961
263.702	566.13178
264.039	577.81408
264.375	600.09208
264.711	606.45143
265.047	590.54827
265.383	599.03194
265.719	629.74755
266.055	614.92662
266.391	619.16254
266.727	631.86373
267.063	601.15215
267.399	596.91145
267.734	593.73018
268.07	589.48748
268.405	619.16254
268.741	612.80824
269.076	601.15215
269.412	603.27207
269.747	559.75581
270.082	549.12314
270.418	589.48748
270.753	607.51107
271.088	625.51436
271.423	628.68935
271.758	605.39171
272.093	597.97173
272.428	610.68958
272.763	632.92172
273.098	603.27207
273.433	590.54827
273.767	636.09528
274.102	638.21066
274.436	601.15215
274.771	608.57064
275.106	624.4559
275.44	637.15301
275.774	619.16254
276.109	577.81408
276.443	585.24363
276.777	595.8511
277.111	615.9857
277.445	629.74755
277.78	636.09528
278.114	625.51436
278.447	600.09208
278.781	574.62889
279.115	586.3047
279.449	630.80567
279.783	645.61237
280.116	633.97964
280.45	615.9857
280.784	623.39736
281.117	667.79818
281.451	666.74236
281.784	694.17318
282.117	688.9013
282.451	593.73018
282.784	599.03194
283.117	642.44061
283.45	663.57452
283.783	649.84046
284.116	639.26825
284.449	696.2815
284.782	743.65557
285.115	766.77384
285.448	725.77269
285.781	681.51806
286.114	696.2815
286.446	735.24217
286.779	809.78788
287.111	789.8656
287.444	721.56251
287.776	748.9121
288.109	806.6435
288.441	826.55018
288.773	826.55018
289.106	919.56659
289.438	911.22028
289.77	847.48515
290.102	932.0809
290.434	904.95872
290.766	1008.08288
291.098	1110.83901
291.43	1084.92208
291.762	1081.81067
292.094	1085.95915
292.425	1142.94837
292.757	1153.29993
293.089	1212.248
293.42	1222.58036
293.752	1202.94653
294.083	1297.92742
294.414	1390.6449
294.746	1400.9358
295.077	1411.2246
295.408	1475.99759
295.74	1614.54923
296.071	1652.4689
296.402	1609.42326
296.733	1650.41974
297.064	1730.29143
297.395	1773.26201
297.726	1801.89515
298.056	1935.71605
298.387	2069.31541
298.718	2164.03151
299.049	2229.15105
299.379	2099.88059
299.71	2069.31541
300.04	2222.03103
300.371	2252.54118
300.701	2267.79214
301.031	2411.01616
301.362	2493.18225
301.692	2585.39324
302.022	2624.87962
302.352	2626.90403
302.682	2710.87069
303.012	2754.33552
303.342	2827.05796
303.672	2911.81095
304.002	3069.95291
304.332	3171.50089
304.662	3145.37396
304.992	3156.42886
305.321	3210.67281
305.651	3321.0376
305.98	3425.21862
306.31	3526.24185
306.639	3543.23102
306.969	3533.23791
307.298	3629.1115
307.628	3729.83433
307.957	3729.83433
308.286	3792.58767
308.615	3916.93415
308.944	4011.29557
309.273	4059.91981
309.602	4085.7079
309.931	4269.94916
310.26	4389.59025
310.589	4443.92093
310.918	4528.81394
311.247	4690.51671
311.575	4689.5314
311.904	4678.69244
312.233	4820.51295
312.561	4854.96155
312.89	4993.66739
313.218	5186.32551
313.546	5277.69702
313.875	5215.80248
314.203	5169.62077
314.531	5264.92583
314.859	5374.94553
315.188	5434.86118
315.516	5515.40192
315.844	5578.26476
316.172	5647.02589
316.5	5693.19844
316.827	5653.9024
317.155	5716.77762
317.483	5867.13049
317.811	5938.8947
318.138	6049.04168
318.466	6175.98293
318.794	6218.31683
319.121	6223.24007
319.449	6298.09179
319.776	6371.0084
320.103	6374.95085
320.431	6568.26477
320.758	6614.66116
321.085	6517.93782
321.412	6542.60556
321.739	6542.60556
322.066	6732.20577
322.393	6855.79157
322.72	6783.60311
323.047	6922.08227
323.374	7123.13875
323.701	7108.27195
324.028	7073.58912
324.354	7283.80217
324.681	7424.77644
325.008	7461.53003
325.334	7426.7629
325.661	7469.47783
325.987	7608.62325
326.314	7709.07003
326.64	7614.58899
326.966	7596.69233
327.293	7763.78844
327.619	7737.91994
327.945	7819.51448
328.271	7916.06665
328.597	7959.87315
328.923	8014.63833
329.249	8027.58384
329.575	7981.77834
329.901	7921.04439
330.227	8092.31627
330.552	8145.10298
330.878	8111.23938
331.204	8100.28383
331.529	8050.48827
331.855	8297.4996
332.18	8414.03562
332.506	8302.47995
332.831	8350.29074
333.156	8577.35167
333.482	8664.9563
333.807	8627.13006
334.132	8675.90507
334.457	8572.37343
334.782	8605.22849
335.107	8844.05548
335.432	8817.19991
335.757	8868.91846
336.082	9050.80733
336.407	9049.81397
336.732	9035.90618
337.057	9115.36143
337.381	9139.18933
337.706	9066.70025
338.031	9133.23274
338.355	9267.1908
338.68	9401.99432
339.004	9316.76873
339.329	9241.40236
339.653	9310.82045
339.977	9225.52991
340.301	9312.80324
340.626	9512.89012
340.95	9590.0549
341.274	9622.68483
341.598	9583.13211
341.922	9595.98835
342.246	9695.81849
342.57	9799.50213
342.894	9837.00059
343.218	9864.62253
343.541	10084.36052
343.865	10127.6663
344.189	10111.92059
344.512	10221.11465
344.836	10151.281
345.159	10106.0154
345.483	10182.76014
345.806	10257.49176
346.13	10360.67207
346.453	10280.09958
346.776	10192.59573
347.099	10372.45952
347.423	10396.03181
347.746	10293.85905
348.069	10584.50151
348.392	10695.35697
348.715	10432.36585
349.038	10484.39901
349.361	10609.03025
349.683	10730.6676
350.006	10759.11098
350.329	10785.59208
350.652	10893.47851
350.974	10894.45934
351.297	11009.23281
351.619	11063.20238
351.942	11118.16872
352.264	11244.86784
352.587	11278.28458
352.909	11300.89645
353.231	11229.146
353.554	11249.78138
353.876	11435.70902
354.198	11579.66456
354.52	11667.59628
354.842	11669.57401
355.164	11631.02238
355.486	11606.32498
355.808	11597.43672
356.13	11694.30238
356.452	11798.30632
356.773	11679.46384
357.095	11560.9112
357.417	11605.33732
357.738	11575.71596
358.06	11681.44205
358.381	11681.44205
358.703	11579.66456
359.024	11663.64106
359.346	11729.93387
359.667	11819.13689
359.988	11807.23244
360.309	11833.02976
360.631	11836.00742
360.952	11854.871
361.273	11998.13957
361.594	12136.98982
361.915	12291.53953
362.236	12249.31066
362.557	12304.62279
362.878	12253.32984
363.198	12097.97283
363.519	12251.32018
363.84	12384.25798
364.16	12413.54801
364.481	12397.38417
364.802	12215.16946
365.122	12249.31066
365.443	12293.55196
365.763	12205.1353
366.083	12202.1257
366.404	12138.99197
366.724	12133.98682
367.044	12052.01279
367.364	12054.00973
367.685	12057.00536
368.005	12032.04986
368.325	12140.99426
368.645	12293.55196
368.965	12233.23935
369.284	12073.98571
369.604	12074.98482
369.924	12214.16589
370.244	12387.28655
370.564	12539.14446
370.883	12663.29714
371.203	12640.8654
371.522	12659.21721
371.842	12970.09597
372.161	13010.37702
372.481	12710.26249
372.8	12748.10072
373.119	12854.75292
373.439	12896.91844
373.758	12781.89495
374.077	12627.61934
374.396	12764.48031
374.715	12730.70874
375.034	12422.64434
375.353	12149.00466
375.672	11827.0751
375.991	11200.6558
376.31	10595.29441
376.629	10331.19947
376.948	10562.91438
377.266	11116.20533
377.585	11399.27693
377.904	11742.80757
378.222	12147.00187
378.541	12674.52027
378.859	13233.47528
379.178	13363.92332
379.496	13229.30938
379.814	12838.31645
380.133	12666.35752
380.451	12791.11919
380.769	12571.65238
381.087	12462.09677
381.405	12439.83454
381.723	12391.32516
382.041	12498.56543
382.359	12537.11404
382.677	12575.71869
382.995	12723.55072
383.313	12735.82282
383.631	12672.47934
383.949	12783.9445
384.266	12962.87237
384.584	13129.49633
384.901	12926.78357
385.219	12781.89495
385.537	12898.97702
385.854	12900.00638
386.171	12872.22798
386.489	13103.55823
386.806	13086.97011
387.123	12975.25686
387.441	13017.61326
387.758	12979.38629
388.075	12848.58803
388.392	12645.96183
388.709	12636.78897
389.026	12560.47327
389.343	12591.9902
389.66	12890.74366
389.977	12838.31645
390.294	12717.41684
390.61	13068.32004
390.927	13193.92148
391.244	12960.80885
391.56	12824.96943
391.877	12783.9445
392.193	12752.19465
392.51	12776.77178
392.826	12721.50593
393.143	12663.29714
393.459	12820.86403
393.775	13003.1427
394.092	13037.26408
394.408	12938.12052
394.724	12997.97649
395.04	13205.3661
395.356	13197.04232
395.672	13395.30193
395.988	13581.94689
396.304	13699.68591
396.62	13799.63811
396.936	13852.24667
397.252	13995.21964
397.567	13996.26973
397.883	14009.9187
398.199	14014.11755
398.514	13987.86838
398.83	13898.52967
399.146	13749.13162
399.461	13828.04785
399.777	13864.87092
400.092	13705.99731
400.407	13675.4951
400.723	13380.65538
401.038	12984.54896
401.353	13096.29975
401.668	13218.89701
401.983	13132.61046
402.298	12997.97649
402.613	12834.20895
402.928	12718.43906
403.243	12552.34598
403.558	12636.78897
403.873	12833.18217
404.188	12806.50021
404.503	12780.87023
404.817	12728.66339
405.132	12600.12973
405.447	12783.9445
405.761	12804.44888
406.076	12585.8872
406.39	12878.39842
406.705	13182.48113
407.019	13121.19361
407.334	13052.78774
407.648	13072.46344
407.962	12958.74548
408.276	12847.56069
408.591	12902.0652
408.905	12897.94771
409.219	13022.78317
409.533	12955.65072
409.847	12897.94771
410.161	13058.99963
410.475	13113.93068
410.789	13141.95483
411.102	13013.47804
411.416	13005.20945
411.73	13279.33582
412.044	13259.52449
412.357	13092.15287
412.671	13070.39166
412.984	13109.78125
413.298	13044.50738
413.611	12942.24424
413.925	12918.54156
414.238	12801.37219
414.552	12869.1433
414.865	12823.94302
415.178	12689.83234
415.491	12548.28328
415.804	12478.29897
416.118	12505.66231
416.431	12305.62944
416.744	12346.93258
417.057	12457.03557
417.37	12425.67712
417.683	12173.04817
417.995	12146.00052
418.308	12211.15539
418.621	12140.99426
418.934	12106.97255
419.246	12192.09585
419.559	12490.45701
419.872	12704.13176
420.184	12888.68572
420.497	12798.29587
420.809	12872.22798
421.121	12823.94302
421.434	12611.32572
421.746	12853.72534
422.058	12842.4246
422.371	12428.71024
422.683	12276.4508
422.995	12190.09028
423.307	12199.1164
423.619	12213.16236
423.931	12086.97656
424.243	12119.97658
424.555	11986.1791
424.867	11813.18424
425.179	11812.19221
425.491	11743.79801
425.802	11594.47429
426.114	11494.82877
426.426	11466.24768
426.737	11492.85725
427.049	11541.17745
427.361	11570.78061
427.672	11582.62619
427.984	11419.95236
428.295	11382.54384
428.606	11441.61867
428.918	11390.41778
429.229	11372.70254
429.54	11148.60461
429.851	10871.90051
430.163	10867.9773
430.474	10898.38269
430.785	10985.68629
431.096	11072.03511
431.407	11046.51943
431.718	11021.00688
432.029	10897.40185
432.339	10959.19876
432.65	11111.29695
432.961	10973.91378
433.272	10898.38269
433.582	11085.77574
433.893	10951.35101
434.204	10882.68942
434.514	10995.49709
434.825	10878.76616
435.135	10887.59353
435.446	10971.95174
435.756	11098.53586
436.066	11180.02923
436.377	11200.6558
436.687	11145.65892
436.997	10947.42721
437.307	10998.4404
437.617	11218.33854
437.927	11021.00688
438.237	10917.99988
438.547	11167.26208
438.857	11193.77989
439.167	11397.30814
439.477	11346.13705
439.787	11263.54055
440.097	11372.70254
440.407	11237.98925
440.716	11053.38871
441.026	11042.59423
441.336	11146.64081
441.645	10957.23681
441.955	10892.49767
442.264	11047.50074
442.574	11111.29695
442.883	10960.17974
443.192	10893.47851
443.502	11014.1386
443.811	10843.45758
444.12	10690.45254
444.429	10711.05085
444.739	10606.08691
445.048	10679.66261
445.357	10622.76546
445.666	10602.16241
445.975	10676.71985
446.284	10468.69241
446.593	10399.96019
446.901	10520.71586
447.21	10580.57671
447.519	10434.32964
447.828	10308.59985
448.136	10292.87628
448.445	10623.74652
448.754	10707.12742
449.062	10467.7107
449.371	10431.38395
449.679	10635.51905
449.988	10869.9389
450.296	11084.79423
450.605	11449.49898
450.913	11776.4948
451.221	12231.23105
451.529	12530.00879
451.838	12281.47951
452.146	11946.3398
452.454	11914.4996
452.762	11878.71145
453.07	11538.21796
453.378	11316.62969
453.686	11233.07625
453.994	11300.89645
454.302	11149.58652
454.609	10543.28811
454.917	10349.86611
455.225	10462.8021
455.533	10372.45952
455.84	10302.70371
456.148	10274.20225
456.455	10100.10992
456.763	10158.16775
457.07	10455.92984
457.378	10507.9566
457.685	10365.58362
457.993	10393.08546
458.3	10512.8641
458.607	10673.77708
458.915	10784.6113
459.222	10887.59353
459.529	10891.51684
459.836	10984.70523
460.143	10785.59208
460.45	10387.19261
460.757	10462.8021
461.064	10589.40743
461.371	10596.27557
461.678	10633.55699
461.985	10799.32288
462.292	11068.1094
462.598	11382.54384
462.905	11636.9515
463.212	11736.86541
463.518	11911.51597
463.825	12262.37501
464.131	12630.67553
464.438	12658.19732
464.744	12367.10231
465.051	12194.10156
465.357	12285.5031
465.664	12151.00758
465.97	11599.41176
466.276	11559.92435
466.582	11587.56259
466.889	11392.38639
467.195	11605.33732
467.501	12110.97323
467.807	12930.90554
468.113	13790.16796
468.419	14451.71824
468.725	14841.29723
469.031	15222.43916
469.337	15316.89238
469.642	15016.82775
469.948	14729.35183
470.254	14474.21314
470.56	13897.47799
470.865	13264.73684
471.171	13062.10609
471.477	12804.44888
471.782	12326.77724
472.088	11930.41629
472.393	11927.43139
472.698	11645.84645
473.004	11263.54055
473.309	11584.60069
473.614	12043.02802
473.92	12307.64284
474.225	12358.02414
474.53	12248.30595
474.835	12215.16946
475.14	12049.0176
475.445	11770.54812
475.75	11316.62969
476.055	10941.54157
476.36	10642.38616
476.665	10226.03106
476.97	10048.91651
477.275	10166.03785
477.58	10304.66912
477.885	10294.84182
478.189	10096.17277
478.494	9907.02799
478.799	9772.85038
479.103	9734.34149
479.408	9824.17367
479.712	9940.54603
480.017	10062.70159
480.321	10328.25189
480.625	10440.22086
480.93	10558.98925
481.234	11135.84041
481.538	11505.6732
481.843	11758.65718
482.147	12043.02802
482.451	12249.31066
482.755	12519.86172
483.059	12512.76107
483.363	12475.26032
483.667	12685.74824
483.971	12655.13791
484.275	12471.20931
484.579	12717.41684
484.883	13028.98835
485.187	12795.21991
485.49	12635.76997
485.794	12646.98123
486.098	12539.14446
486.401	12305.62944
486.705	12210.15196
487.009	12148.00325
487.312	12188.08483
487.616	12272.42845
487.919	12028.05869
488.222	11951.31731
488.526	11899.5838
488.829	11850.89898
489.132	11901.57224
489.436	11776.4948
489.739	11716.07395
490.042	11846.92736
490.345	11831.04478
490.648	11781.45099
490.951	11925.44159
491.254	12043.02802
491.557	12104.9724
491.86	12219.18405
492.163	12538.12923
492.466	12919.57167
492.769	13318.9935
493.072	13556.74144
493.375	13631.33521
493.677	13805.95152
493.98	13902.73628
494.283	13680.75355
494.585	13363.92332
494.888	13131.57238
495.19	12902.0652
495.493	12805.47452
495.795	12421.63349
496.098	12174.05039
496.4	12080.98014
496.702	11964.26203
497.005	12060.00127
497.307	12034.04563
497.609	11953.30851
497.911	11828.06748
498.213	11724.98342
498.515	11765.59317
498.818	11795.33136
499.12	11818.14473
499.422	11758.65718
499.723	11691.33431
500.025	11835.01484
500.327	11877.71781
500.629	11818.14473
500.931	11829.05989
501.233	11810.20823
501.534	11720.0335
501.836	11595.46175
502.138	11744.78847
502.439	11893.61912
502.741	11777.48599
503.042	11781.45099
503.344	11853.87795
503.645	11971.23419
503.947	11823.10581
504.248	11917.48346
504.55	12045.02443
504.851	11808.22435
505.152	11901.57224
505.453	11862.81621
505.755	11992.15883
506.056	12023.07037
506.357	11791.36508
506.658	11778.4772
506.959	11825.0904
507.26	11860.82976
507.561	11644.85805
507.862	11619.16618
508.163	11651.77729
508.464	11559.92435
508.764	11633.98685
509.065	11528.35407
509.366	11601.38688
509.667	11830.05232
509.967	11714.0943
510.268	11536.24505
510.569	11587.56259
510.869	11510.60312
511.17	11345.15331
511.47	11449.49898
511.771	11389.43349
512.071	11468.21839
512.371	11553.01689
512.672	11321.54689
512.972	11295.98037
513.272	11337.28378
513.573	11294.99718
513.873	11362.86246
514.173	11257.64354
514.473	11095.59113
514.773	11080.86825
515.073	11119.15043
515.373	11102.46224
515.673	11040.63166
515.973	10964.10369
516.273	10910.15291
516.573	10963.1227
516.873	10839.53447
517.172	10743.4182
517.472	10695.35697
517.772	10697.31873
518.072	10809.13056
518.371	10891.51684
518.671	10842.47681
518.97	10790.49594
