Data from white_1_6_ST026791__102__22461.txt Node

Date: Tue Aug 19 16:19:50 AEST 2025
User: mathewyoussef
Spectrometer: ST02679
Trigger mode: 0
Integration Time (sec): 6.653700E-1
Scans to average: 1
Nonlinearity correction enabled: true
Boxcar width: 0
Storing dark spectrum: false
XAxis mode: Wavelengths
Number of Pixels in Spectrum: 1516
>>>>>Begin Spectral Data<<<<<
187.304	597.97173
187.653	606.45143
188.002	617.04472
188.351	571.44303
188.7	559.75581
189.048	592.66961
189.397	624.4559
189.746	621.28009
190.094	577.81408
190.443	600.09208
190.791	609.63015
191.14	593.73018
191.488	603.27207
191.837	603.27207
192.185	590.54827
192.533	590.54827
192.881	608.57064
193.229	605.39171
193.577	610.68958
193.925	605.39171
194.273	583.12126
194.621	600.09208
194.969	609.63015
195.317	621.28009
195.664	661.4623
196.012	636.09528
196.359	584.18248
196.707	583.12126
197.054	597.97173
197.402	587.3657
197.749	588.42663
198.096	609.63015
198.443	603.27207
198.791	587.3657
199.138	597.97173
199.485	611.74894
199.832	604.33193
200.179	592.66961
200.525	574.62889
200.872	580.99861
201.219	606.45143
201.566	625.51436
201.912	620.22135
202.259	597.97173
202.605	605.39171
202.952	599.03194
203.298	595.8511
203.644	608.57064
203.991	596.91145
204.337	594.79068
204.683	573.56701
205.029	565.06931
205.375	562.94414
205.721	595.8511
206.067	622.33876
206.413	610.68958
206.759	590.54827
207.104	566.13178
207.45	570.38093
207.796	570.38093
208.141	592.66961
208.487	618.10366
208.832	606.45143
209.177	565.06931
209.523	560.81866
209.868	560.81866
210.213	580.99861
210.558	574.62889
210.903	564.00676
211.248	578.87566
211.593	595.8511
211.938	627.63109
212.283	629.74755
212.628	620.22135
212.973	608.57064
213.317	608.57064
213.662	601.15215
214.007	600.09208
214.351	618.10366
214.696	617.04472
215.04	576.75242
215.384	579.93717
215.729	565.06931
216.073	554.44043
216.417	608.57064
216.761	627.63109
217.105	637.15301
217.449	635.0375
217.793	592.66961
218.137	576.75242
218.481	621.28009
218.824	624.4559
219.168	593.73018
219.512	601.15215
219.855	608.57064
220.199	592.66961
220.542	600.09208
220.886	620.22135
221.229	610.68958
221.572	602.21215
221.916	591.60898
222.259	589.48748
222.602	606.45143
222.945	583.12126
223.288	553.37712
223.631	575.69069
223.974	585.24363
224.317	570.38093
224.659	582.05997
225.002	588.42663
225.345	564.00676
225.687	590.54827
226.03	630.80567
226.372	568.25651
226.715	553.37712
227.057	583.12126
227.4	576.75242
227.742	590.54827
228.084	597.97173
228.426	587.3657
228.768	595.8511
229.11	603.27207
229.452	605.39171
229.794	626.57276
230.136	600.09208
230.478	597.97173
230.82	622.33876
231.161	595.8511
231.503	635.0375
231.845	647.72654
232.186	646.66949
232.528	647.72654
232.869	601.15215
233.21	582.05997
233.552	573.56701
233.893	574.62889
234.234	576.75242
234.575	612.80824
234.916	610.68958
235.257	588.42663
235.598	608.57064
235.939	605.39171
236.28	579.93717
236.621	600.09208
236.961	643.49793
237.302	630.80567
237.643	593.73018
237.983	599.03194
238.324	606.45143
238.664	636.09528
239.005	611.74894
239.345	584.18248
239.685	613.86746
240.025	607.51107
240.366	625.51436
240.706	622.33876
241.046	592.66961
241.386	606.45143
241.726	617.04472
242.066	594.79068
242.405	572.50506
242.745	607.51107
243.085	611.74894
243.425	560.81866
243.764	569.31875
244.104	661.4623
244.443	695.22737
244.783	620.22135
245.122	601.15215
245.461	627.63109
245.801	627.63109
246.14	590.54827
246.479	578.87566
246.818	583.12126
247.157	587.3657
247.496	614.92662
247.835	614.92662
248.174	585.24363
248.513	561.88144
248.852	642.44061
249.19	674.13176
249.529	604.33193
249.868	600.09208
250.206	595.8511
250.545	582.05997
250.883	587.3657
251.221	592.66961
251.56	568.25651
251.898	532.09483
252.236	577.81408
252.574	582.05997
252.912	558.69289
253.25	569.31875
253.588	592.66961
253.926	621.28009
254.264	615.9857
254.602	608.57064
254.94	612.80824
255.278	600.09208
255.615	582.05997
255.953	583.12126
256.29	580.99861
256.628	595.8511
256.965	608.57064
257.303	595.8511
257.64	614.92662
257.977	612.80824
258.314	578.87566
258.652	572.50506
258.989	596.91145
259.326	615.9857
259.663	594.79068
260	599.03194
260.337	601.15215
260.673	590.54827
261.01	586.3047
261.347	580.99861
261.684	560.81866
262.02	573.56701
262.357	587.3657
262.693	578.87566
263.03	586.3047
263.366	575.69069
263.702	562.94414
264.039	578.87566
264.375	608.57064
264.711	613.86746
265.047	577.81408
265.383	576.75242
265.719	592.66961
266.055	597.97173
266.391	624.4559
266.727	633.97964
267.063	611.74894
267.399	583.12126
267.734	605.39171
268.07	609.63015
268.405	579.93717
268.741	597.97173
269.076	582.05997
269.412	553.37712
269.747	556.56681
270.082	585.24363
270.418	606.45143
270.753	605.39171
271.088	624.4559
271.423	631.86373
271.758	592.66961
272.093	585.24363
272.428	610.68958
272.763	601.15215
273.098	579.93717
273.433	579.93717
273.767	593.73018
274.102	570.38093
274.436	559.75581
274.771	621.28009
275.106	613.86746
275.44	589.48748
275.774	624.4559
276.109	606.45143
276.443	610.68958
276.777	604.33193
277.111	578.87566
277.445	596.91145
277.78	607.51107
278.114	607.51107
278.447	582.05997
278.781	549.12314
279.115	590.54827
279.449	619.16254
279.783	627.63109
280.116	608.57064
280.45	584.18248
280.784	636.09528
281.117	647.72654
281.451	602.21215
281.784	658.29348
282.117	672.02082
282.451	631.86373
282.784	626.57276
283.117	623.39736
283.45	662.51844
283.783	655.12409
284.116	654.06749
284.449	693.11893
284.782	728.9297
285.115	735.24217
285.448	703.65871
285.781	700.49741
286.114	688.9013
286.446	683.62787
286.779	813.97967
287.111	777.27332
287.444	687.84674
287.776	764.67329
288.109	818.17065
288.441	835.97335
288.773	799.30481
289.106	872.58171
289.438	887.20897
289.77	848.53139
290.102	894.51925
290.434	891.38654
290.766	1071.43711
291.098	1131.55815
291.43	1046.52664
291.762	1074.54953
292.094	1104.6208
292.425	1136.73598
292.757	1133.62938
293.089	1176.06288
293.42	1182.2685
293.752	1173.9941
294.083	1288.64531
294.414	1357.69958
294.746	1367.99739
295.077	1419.45415
295.408	1493.46281
295.74	1636.07388
296.071	1627.87485
296.402	1547.87909
296.733	1591.9919
297.064	1662.71374
297.395	1711.86763
297.726	1802.91756
298.056	1942.86044
298.387	1970.41149
298.718	2055.04786
299.049	2192.52746
299.379	2138.58061
299.71	2091.73096
300.04	2156.90603
300.371	2223.04821
300.701	2243.38929
301.031	2389.70047
301.362	2480.00065
301.692	2530.68738
302.022	2614.75679
302.352	2646.13332
302.682	2709.85959
303.012	2732.1008
303.342	2804.8447
303.672	2831.09602
304.002	2897.69225
304.332	3010.56482
304.662	3094.09649
304.992	3177.52879
305.321	3224.7291
305.651	3336.07355
305.98	3383.16472
306.31	3402.19233
306.639	3498.25045
306.969	3515.2466
307.298	3552.22358
307.628	3669.0193
307.957	3727.84124
308.286	3740.79532
308.615	3825.43616
308.944	3987.46821
309.273	4026.18385
309.602	4007.32487
309.931	4152.12269
310.26	4263.02279
310.589	4297.64909
310.918	4423.18015
311.247	4582.08329
311.575	4604.76417
311.904	4603.77814
312.233	4751.5912
312.561	4836.26185
312.89	4848.07245
313.218	5060.52505
313.546	5199.09916
313.875	5081.16826
314.203	5045.77879
314.531	5135.22587
314.859	5293.41497
315.188	5337.61942
315.516	5344.49541
315.844	5388.69689
316.172	5458.43408
316.5	5622.46757
316.827	5622.46757
317.155	5668.63806
317.483	5832.72982
317.811	5852.38684
318.138	5872.04522
318.466	5993.96121
318.794	6024.45038
319.121	6043.13949
319.449	6154.32777
319.776	6230.13285
320.103	6262.63134
320.431	6360.1672
320.758	6454.80851
321.085	6475.51966
321.412	6531.75121
321.739	6545.56599
322.066	6676.87753
322.393	6820.18674
322.72	6744.06489
323.047	6769.76336
323.374	6940.8873
323.701	7025.0483
324.028	7116.20071
324.354	7155.85145
324.681	7171.71496
325.008	7308.61204
325.334	7358.24419
325.661	7455.56943
325.987	7572.83275
326.314	7502.26649
326.64	7423.78321
326.966	7580.78561
327.293	7677.24004
327.619	7652.37619
327.945	7795.63039
328.271	7800.60606
328.597	7733.94042
328.923	7758.81351
329.249	7763.78844
329.575	7887.19729
329.901	7863.30743
330.227	7852.35856
330.552	8091.32033
330.878	8109.24745
331.204	8006.67204
331.529	7991.73565
331.855	8174.98366
332.18	8275.58601
332.506	8206.8572
332.831	8287.53889
333.156	8496.69638
333.482	8554.4512
333.807	8406.06776
334.132	8543.49831
334.457	8675.90507
334.782	8609.21071
335.107	8665.95166
335.432	8681.87694
335.757	8749.54833
336.082	8888.80647
336.407	8891.78949
336.732	8870.90736
337.057	8996.16264
337.381	9082.59144
337.706	9060.74061
338.031	9018.02286
338.355	9154.07965
338.68	9323.70801
339.004	9172.93836
339.329	9108.41086
339.653	9245.37016
339.977	9328.66439
340.301	9378.21672
340.626	9337.58536
340.95	9431.70935
341.274	9492.1056
341.598	9451.51501
341.922	9617.74154
342.246	9700.75812
342.57	9668.15225
342.894	9799.50213
343.218	9876.45831
343.541	9843.90675
343.865	9919.84494
344.189	10008.53625
344.512	10205.38086
344.836	10187.67803
345.159	10047.9318
345.483	10144.39385
345.806	10195.54626
346.13	10305.65181
346.453	10376.38848
346.776	10209.31449
347.099	10285.01383
347.423	10339.05939
347.746	10151.281
348.069	10369.51274
348.392	10597.25672
348.715	10439.239
349.038	10433.34775
349.361	10500.10437
349.683	10628.65179
350.006	10699.28048
350.329	10758.13019
350.652	10856.20777
350.974	10760.09177
351.297	10760.09177
351.619	10858.16935
351.942	11065.16517
352.264	11164.31599
352.587	11159.40599
352.909	11247.81594
353.231	11079.88677
353.554	11105.40709
353.876	11252.72962
354.198	11354.00741
354.52	11490.8858
354.842	11483.00059
355.164	11573.74177
355.486	11620.1541
355.808	11463.29173
356.13	11453.43948
356.452	11579.66456
356.773	11511.58914
357.095	11414.0445
357.417	11396.32376
357.738	11490.8858
358.06	11674.51868
358.381	11552.03018
358.703	11465.26235
359.024	11507.64512
359.346	11507.64512
359.667	11620.1541
359.988	11593.48685
360.309	11621.14203
360.631	11784.42497
360.952	11889.64318
361.273	11861.82298
361.594	11984.18608
361.915	12161.0241
362.236	12165.0316
362.557	12287.51511
362.878	12333.82998
363.198	12160.0223
363.519	12159.02054
363.84	12320.73341
364.16	12252.32499
364.481	12093.97376
364.802	12019.08023
365.122	12181.06681
365.443	12235.24779
365.763	12125.98021
366.083	12218.18035
366.404	12221.19155
366.724	12184.07434
367.044	12162.02593
367.364	12110.97323
367.685	12116.97518
368.005	12022.07279
368.325	12060.00127
368.645	12135.98879
368.965	12013.0959
369.284	11954.30415
369.604	12135.98879
369.924	12312.67697
370.244	12347.94073
370.564	12370.12901
370.883	12430.7325
371.203	12494.51092
371.522	12515.80398
371.842	12838.31645
372.161	12870.17148
372.481	12640.8654
372.8	12682.68558
373.119	12693.91709
373.439	12756.28922
373.758	12809.5775
374.077	12717.41684
374.396	12682.68558
374.715	12639.84623
375.034	12327.78466
375.353	11920.46756
375.672	11548.0835
375.991	11029.83782
376.31	10544.26946
376.629	10342.9892
376.948	10565.85819
377.266	11021.00688
377.585	11353.02357
377.904	11755.68495
378.222	12385.26747
378.541	12773.69837
378.859	13018.64717
379.178	13254.31297
379.496	13196.002
379.814	12932.96676
380.133	12670.43857
380.451	12611.32572
380.769	12458.04773
381.087	12233.23935
381.405	12098.97268
381.723	12231.23105
382.041	12508.70441
382.359	12586.90427
382.677	12492.48389
382.995	12757.31297
383.313	12835.23576
383.631	12566.57038
383.949	12761.40835
384.266	13045.54229
384.584	13021.74911
384.901	12836.26262
385.219	13030.02268
385.537	13073.49938
385.854	12843.45174
386.171	12900.00638
386.489	13039.3334
386.806	12990.74546
387.123	12928.84448
387.441	12885.59911
387.758	12769.60105
388.075	12650.03969
388.392	12469.18404
388.709	12439.83454
389.026	12465.13394
389.343	12514.78964
389.66	12660.23713
389.977	12707.19694
390.294	12725.59566
390.61	13024.85141
390.927	13170.00566
391.244	12913.39159
391.56	12848.58803
391.877	12768.57682
392.193	12666.35752
392.51	12750.1476
392.826	12704.13176
393.143	12703.11011
393.459	12747.07734
393.775	12660.23713
394.092	12665.33735
394.408	12808.5517
394.724	12862.97503
395.04	13021.74911
395.356	13128.45836
395.672	13345.10871
395.988	13618.72225
396.304	13654.46396
396.62	13666.03054
396.936	13785.959
397.252	13986.81811
397.567	14017.26641
397.883	13960.55455
398.199	13974.21319
398.514	14003.61968
398.83	13919.56074
399.146	13837.51726
399.461	13829.10002
399.777	13771.22774
400.092	13663.92743
400.407	13559.89155
400.723	13302.28993
401.038	12935.02814
401.353	12956.68227
401.668	13039.3334
401.983	12908.24263
402.298	12737.86873
402.613	12522.90543
402.928	12556.40932
403.243	12507.69034
403.558	12517.83277
403.873	12777.79633
404.188	12833.18217
404.503	12640.8654
404.817	12665.33735
405.132	12740.9379
405.447	12778.82093
405.761	12813.68113
406.076	12715.37254
406.39	12793.16947
406.705	13009.34343
407.019	13149.22472
407.334	13111.85589
407.648	12962.87237
407.962	12762.43229
408.276	12807.52593
408.591	12814.70713
408.905	12884.57032
409.219	13160.65245
409.533	13033.1259
409.847	12926.78357
410.161	13060.03508
410.475	13164.80907
410.789	13144.03176
411.102	13065.21289
411.416	13049.68232
411.73	13088.00659
412.044	13102.52119
412.357	13015.54557
412.671	12945.33744
412.984	13023.81727
413.298	12900.00638
413.611	12797.27051
413.925	12900.00638
414.238	12835.23576
414.552	12937.08969
414.865	12841.3975
415.178	12705.15345
415.491	12612.34377
415.804	12504.64836
416.118	12474.24751
416.431	12227.21485
416.744	12228.21885
417.057	12382.23912
417.37	12406.47516
417.683	12242.27839
417.995	12193.09869
418.308	12199.1164
418.621	12264.38542
418.934	12169.03963
419.246	12214.16589
419.559	12586.90427
419.872	12641.88461
420.184	12788.04408
420.497	12982.48377
420.809	12931.93613
421.121	12624.56351
421.434	12568.60306
421.746	12802.39771
422.058	12720.4836
422.371	12345.92447
422.683	12288.52116
422.995	12219.18405
423.307	12117.97562
423.619	12144.9992
423.931	11983.18962
424.243	12014.09321
424.555	11956.29551
424.867	11739.83639
425.179	11698.2601
425.491	11789.38208
425.802	11712.11473
426.114	11549.07014
426.426	11590.52464
426.737	11661.66357
427.049	11552.03018
427.361	11482.015
427.672	11497.78616
427.984	11335.31651
428.295	11390.41778
428.606	11407.1526
428.918	11350.07214
429.229	11451.46921
429.54	11267.47208
429.851	11006.28938
430.163	10882.68942
430.474	10807.16903
430.785	11017.08213
431.096	11265.50629
431.407	11225.21589
431.718	11127.98607
432.029	10972.93276
432.339	10989.61057
432.65	11015.11977
432.961	10949.3891
433.272	10933.69419
433.582	10894.45934
433.893	10870.9197
434.204	10879.74698
434.514	10835.61137
434.825	10772.84198
435.135	10801.28441
435.446	10897.40185
435.756	11116.20533
436.066	11128.96784
436.377	11122.09559
436.687	11179.04709
436.997	11029.83782
437.307	11046.51943
437.617	11187.88656
437.927	11111.29695
438.237	11083.81273
438.547	11085.77574
438.857	11000.40262
439.167	11244.86784
439.477	11235.04142
439.787	11181.01137
440.097	11317.61311
440.407	11294.99718
440.716	11143.69517
441.026	11078.90529
441.336	11176.10074
441.645	10997.45929
441.955	10832.66905
442.264	10944.48438
442.574	11158.42401
442.883	11047.50074
443.192	10864.05411
443.502	10966.06568
443.811	10873.86212
444.12	10748.32222
444.429	10612.95466
444.739	10502.06746
445.048	10580.57671
445.357	10480.47248
445.666	10531.51156
445.975	10667.89147
446.284	10537.39991
446.593	10426.47437
446.901	10395.0497
447.21	10478.50918
447.519	10362.63671
447.828	10208.33109
448.136	10320.39139
448.445	10612.95466
448.754	10692.41432
449.062	10597.25672
449.371	10502.06746
449.679	10565.85819
449.988	10805.20749
450.296	11105.40709
450.605	11455.40982
450.913	11735.87513
451.221	12203.12887
451.529	12520.87625
451.838	12217.17669
452.146	11818.14473
452.454	11831.04478
452.762	11861.82298
453.07	11527.36777
453.378	11288.11517
453.686	11294.01401
453.994	11417.98302
454.302	11118.16872
454.609	10637.48109
454.917	10635.51905
455.225	10527.58591
455.533	10292.87628
455.84	10249.62728
456.148	10282.0653
456.455	10094.20415
456.763	10095.18846
457.07	10409.78074
457.378	10504.03053
457.685	10420.58269
457.993	10387.19261
458.3	10486.36225
458.607	10679.66261
458.915	10891.51684
459.222	11106.38872
459.529	11021.98808
459.836	10937.61786
460.143	10747.34142
460.45	10529.54875
460.757	10448.07552
461.064	10366.56591
461.371	10454.94807
461.678	10526.60449
461.985	10728.70595
462.292	11012.17627
462.598	11331.38211
462.905	11666.60744
463.212	11805.24869
463.518	12004.12133
463.825	12213.16236
464.131	12600.12973
464.438	12836.26262
464.744	12443.88086
465.051	12119.97658
465.357	12159.02054
465.664	12147.00187
465.97	11573.74177
466.276	11283.19975
466.582	11394.35505
466.889	11327.44789
467.195	11617.19041
467.501	12121.97766
467.807	12851.6703
468.113	13819.63034
468.419	14484.42064
468.725	14806.5427
469.031	15174.37284
469.337	15205.71816
469.642	14865.26484
469.948	14609.97701
470.254	14442.50101
470.56	14077.04579
470.865	13438.22625
471.171	13045.54229
471.477	12659.21721
471.782	12188.08483
472.088	11849.90604
472.393	11826.08274
472.698	11676.49668
473.004	11424.87594
473.309	11602.37446
473.614	12003.1243
473.92	12383.24854
474.225	12321.74063
474.53	12311.67007
474.835	12250.3154
475.14	11782.44229
475.445	11689.35569
475.75	11369.75039
476.055	10900.34438
476.36	10763.03414
476.665	10339.05939
476.97	9993.75934
477.275	10127.6663
477.58	10322.35655
477.885	10296.80733
478.189	9991.78894
478.494	9806.41074
478.799	9842.92018
479.103	9896.18168
479.408	9864.62253
479.712	9906.04201
480.017	9965.18504
480.321	10195.54626
480.625	10329.23442
480.93	10392.10334
481.234	10922.90429
481.538	11445.55871
481.843	11820.12909
482.147	11961.27438
482.451	12061.99869
482.755	12456.02344
483.059	12520.87625
483.363	12453.9993
483.667	12781.89495
483.971	12734.79992
484.275	12508.70441
484.579	12735.82282
484.883	12987.64703
485.187	12924.72283
485.49	12716.39467
485.794	12585.8872
486.098	12451.97531
486.401	12314.69087
486.705	12281.47951
487.009	12168.03757
487.312	12174.05039
487.616	12261.36985
487.919	11976.21513
488.222	11799.29801
488.526	11872.74998
488.829	11917.48346
489.132	12023.07037
489.436	11808.22435
489.739	11711.12498
490.042	11884.67383
490.345	11834.02229
490.648	11729.93387
490.951	11691.33431
491.254	11863.80948
491.557	12089.97517
491.86	12150.0061
492.163	12391.32516
492.466	12804.44888
492.769	13384.83955
493.072	13636.59119
493.375	13642.89881
493.677	13738.6102
493.98	13729.14134
494.283	13623.9774
494.585	13300.20255
494.888	13002.10938
495.19	12850.64284
495.493	12707.19694
495.795	12498.56543
496.098	12311.67007
496.4	12138.99197
496.702	12036.04151
497.005	12076.98314
497.307	11942.35828
497.609	11682.43119
497.911	11727.95363
498.213	11785.41635
498.515	11794.33976
498.818	11846.92736
499.12	11839.97796
499.422	11756.67567
499.723	11739.83639
500.025	11804.25685
500.327	11701.22861
500.629	11729.93387
500.931	11806.24055
501.233	11825.0904
501.534	11754.69425
501.836	11621.14203
502.138	11773.52135
502.439	11857.85027
502.741	11736.86541
503.042	11676.49668
503.344	11758.65718
503.645	11965.25797
503.947	11953.30851
504.248	11927.43139
504.55	11907.53816
504.851	11941.36296
505.152	12036.04151
505.453	11949.32623
505.755	11937.38198
506.056	11749.74108
506.357	11717.0638
506.658	11822.11354
506.959	11780.4597
507.26	11791.36508
507.561	11668.58513
507.862	11648.81178
508.163	11672.54075
508.464	11604.34969
508.764	11666.60744
509.065	11662.6523
509.366	11766.58411
509.667	11758.65718
509.967	11495.81455
510.268	11353.02357
510.569	11521.45031
510.869	11550.05681
511.17	11434.72412
511.47	11525.39522
511.771	11434.72412
512.071	11491.87152
512.371	11504.68727
512.672	11295.98037
512.972	11376.63891
513.272	11342.20215
513.573	11083.81273
513.873	11226.19841
514.173	11255.67794
514.473	11166.28004
514.773	11274.35262
515.073	11282.2167
515.373	11276.31858
515.673	11156.46008
515.973	11045.53812
516.273	11127.98607
516.573	10950.37006
516.873	10745.37981
517.172	10906.22948
517.472	10943.50344
517.772	10785.59208
518.072	10766.95728
518.371	10786.57285
518.671	10610.01136
518.97	10646.31017
