Data from white_1_6_ST026791__11__22370.txt Node

Date: Tue Aug 19 16:17:47 AEST 2025
User: mathewyoussef
Spectrometer: ST02679
Trigger mode: 0
Integration Time (sec): 6.653700E-1
Scans to average: 1
Nonlinearity correction enabled: true
Boxcar width: 0
Storing dark spectrum: false
XAxis mode: Wavelengths
Number of Pixels in Spectrum: 1516
>>>>>Begin Spectral Data<<<<<
187.304	577.81408
187.653	620.22135
188.002	655.12409
188.351	605.39171
188.7	596.91145
189.048	617.04472
189.397	661.4623
189.746	629.74755
190.094	609.63015
190.443	606.45143
190.791	589.48748
191.14	621.28009
191.488	632.92172
191.837	630.80567
192.185	582.05997
192.533	562.94414
192.881	597.97173
193.229	587.3657
193.577	589.48748
193.925	582.05997
194.273	561.88144
194.621	593.73018
194.969	612.80824
195.317	596.91145
195.664	604.33193
196.012	621.28009
196.359	590.54827
196.707	575.69069
197.054	593.73018
197.402	593.73018
197.749	589.48748
198.096	586.3047
198.443	556.56681
198.791	553.37712
199.138	579.93717
199.485	593.73018
199.832	595.8511
200.179	588.42663
200.525	568.25651
200.872	576.75242
201.219	604.33193
201.566	632.92172
201.912	617.04472
202.259	575.69069
202.605	589.48748
202.952	597.97173
203.298	577.81408
203.644	573.56701
203.991	588.42663
204.337	600.09208
204.683	610.68958
205.029	597.97173
205.375	580.99861
205.721	620.22135
206.067	637.15301
206.413	623.39736
206.759	586.3047
207.104	579.93717
207.45	591.60898
207.796	595.8511
208.141	599.03194
208.487	603.27207
208.832	633.97964
209.177	599.03194
209.523	564.00676
209.868	561.88144
210.213	585.24363
210.558	601.15215
210.903	610.68958
211.248	617.04472
211.593	597.97173
211.938	580.99861
212.283	603.27207
212.628	614.92662
212.973	592.66961
213.317	578.87566
213.662	576.75242
214.007	605.39171
214.351	614.92662
214.696	570.38093
215.04	573.56701
215.384	608.57064
215.729	628.68935
216.073	624.4559
216.417	627.63109
216.761	613.86746
217.105	593.73018
217.449	621.28009
217.793	613.86746
218.137	621.28009
218.481	615.9857
218.824	614.92662
219.168	612.80824
219.512	589.48748
219.855	589.48748
220.199	596.91145
220.542	601.15215
220.886	623.39736
221.229	628.68935
221.572	599.03194
221.916	597.97173
222.259	609.63015
222.602	615.9857
222.945	596.91145
223.288	600.09208
223.631	606.45143
223.974	592.66961
224.317	593.73018
224.659	595.8511
225.002	613.86746
225.345	604.33193
225.687	606.45143
226.03	621.28009
226.372	597.97173
226.715	594.79068
227.057	577.81408
227.4	601.15215
227.742	631.86373
228.084	584.18248
228.426	588.42663
228.768	619.16254
229.11	606.45143
229.452	606.45143
229.794	617.04472
230.136	592.66961
230.478	588.42663
230.82	605.39171
231.161	584.18248
231.503	620.22135
231.845	633.97964
232.186	673.07633
232.528	689.9558
232.869	615.9857
233.21	604.33193
233.552	604.33193
233.893	570.38093
234.234	582.05997
234.575	619.16254
234.916	610.68958
235.257	589.48748
235.598	573.56701
235.939	586.3047
236.28	583.12126
236.621	568.25651
236.961	620.22135
237.302	653.01083
237.643	597.97173
237.983	599.03194
238.324	604.33193
238.664	618.10366
239.005	612.80824
239.345	591.60898
239.685	632.92172
240.025	632.92172
240.366	601.15215
240.706	595.8511
241.046	608.57064
241.386	606.45143
241.726	599.03194
242.066	577.81408
242.405	565.06931
242.745	618.10366
243.085	631.86373
243.425	596.91145
243.764	633.97964
244.104	692.06461
244.443	677.2977
244.783	626.57276
245.122	596.91145
245.461	567.19418
245.801	588.42663
246.14	594.79068
246.479	586.3047
246.818	606.45143
247.157	638.21066
247.496	631.86373
247.835	568.25651
248.174	568.25651
248.513	608.57064
248.852	651.95411
249.19	639.26825
249.529	610.68958
249.868	612.80824
250.206	589.48748
250.545	595.8511
250.883	615.9857
251.221	610.68958
251.56	618.10366
251.898	606.45143
252.236	587.3657
252.574	594.79068
252.912	582.05997
253.25	578.87566
253.588	602.21215
253.926	629.74755
254.264	624.4559
254.602	591.60898
254.94	571.44303
255.278	572.50506
255.615	589.48748
255.953	593.73018
256.29	596.91145
256.628	586.3047
256.965	574.62889
257.303	593.73018
257.64	642.44061
257.977	642.44061
258.314	604.33193
258.652	595.8511
258.989	615.9857
259.326	596.91145
259.663	584.18248
260	590.54827
260.337	558.69289
260.673	573.56701
261.01	604.33193
261.347	595.8511
261.684	588.42663
262.02	614.92662
262.357	601.15215
262.693	583.12126
263.03	591.60898
263.366	596.91145
263.702	609.63015
264.039	591.60898
264.375	588.42663
264.711	590.54827
265.047	613.86746
265.383	636.09528
265.719	596.91145
266.055	586.3047
266.391	642.44061
266.727	626.57276
267.063	593.73018
267.399	602.21215
267.734	626.57276
268.07	642.44061
268.405	593.73018
268.741	601.15215
269.076	592.66961
269.412	554.44043
269.747	579.93717
270.082	580.99861
270.418	593.73018
270.753	608.57064
271.088	594.79068
271.423	601.15215
271.758	591.60898
272.093	592.66961
272.428	607.51107
272.763	619.16254
273.098	614.92662
273.433	620.22135
273.767	637.15301
274.102	595.8511
274.436	555.50366
274.771	564.00676
275.106	584.18248
275.44	595.8511
275.774	597.97173
276.109	595.8511
276.443	610.68958
276.777	605.39171
277.111	629.74755
277.445	644.55518
277.78	637.15301
278.114	649.84046
278.447	622.33876
278.781	615.9857
279.115	608.57064
279.449	602.21215
279.783	628.68935
280.116	605.39171
280.45	577.81408
280.784	615.9857
281.117	656.18062
281.451	643.49793
281.784	740.50098
282.117	749.96324
282.451	623.39736
282.784	614.92662
283.117	662.51844
283.45	691.01024
283.783	666.74236
284.116	699.44353
284.449	759.42095
284.782	728.9297
285.115	759.42095
285.448	757.31963
285.781	683.62787
286.114	685.73743
286.446	721.56251
286.779	798.25622
287.111	803.49866
287.444	744.70699
287.776	737.34586
288.109	773.07418
288.441	799.30481
288.773	826.55018
289.106	932.0809
289.438	956.04976
289.77	904.95872
290.102	909.13327
290.434	939.37809
290.766	1075.58694
291.098	1105.65725
291.43	1113.94769
291.762	1139.84232
292.094	1099.43807
292.425	1103.58432
292.757	1176.06288
293.089	1276.26607
293.42	1263.88324
293.752	1257.69046
294.083	1346.36942
294.414	1415.33954
294.746	1457.49901
295.077	1454.41531
295.408	1487.29923
295.74	1607.37276
296.071	1618.64971
296.402	1630.94961
296.733	1734.38497
297.064	1729.26801
297.395	1745.64098
297.726	1796.78289
298.056	1941.83985
298.387	2074.41038
298.718	2147.74381
299.049	2228.13394
299.379	2176.24523
299.71	2165.04939
300.04	2201.68484
300.371	2315.56064
300.701	2378.53292
301.031	2467.83113
301.362	2614.75679
301.692	2607.67003
302.022	2604.63266
302.352	2699.74782
302.682	2773.533
303.012	2796.76551
303.342	2821.00045
303.672	2943.06405
304.002	3129.29097
304.332	3181.54709
304.662	3249.82248
304.992	3254.84005
305.321	3224.7291
305.651	3317.02745
305.98	3431.2242
306.31	3462.24456
306.639	3484.25043
306.969	3559.21696
307.298	3621.12717
307.628	3787.60929
307.957	3830.41188
308.286	3829.41676
308.615	3936.80973
308.944	4042.06145
309.273	4122.39163
309.602	4149.15008
309.931	4289.73573
310.26	4369.82584
310.589	4388.60213
310.918	4495.26013
311.247	4647.1554
311.575	4685.59007
311.904	4718.10233
312.233	4842.16726
312.561	4912.03124
312.89	5006.45063
313.218	5207.94219
313.546	5256.08404
313.875	5139.15692
314.203	5173.55137
314.531	5216.78501
314.859	5310.11479
315.188	5408.34142
315.516	5538.97514
315.844	5603.80385
316.172	5573.35348
316.5	5675.51485
316.827	5734.46286
317.155	5746.25345
317.483	5930.04595
317.811	6012.6476
318.138	6072.65216
318.466	6162.20207
318.794	6190.74937
319.121	6239.98019
319.449	6327.64834
319.776	6383.82175
320.103	6356.22515
320.431	6489.32879
320.758	6632.43427
321.085	6630.45936
321.412	6620.58526
321.739	6681.81659
322.066	6734.18221
322.393	6810.29825
322.72	6853.81327
323.047	6931.97931
323.374	7092.41583
323.701	7126.11231
324.028	7174.68957
324.354	7245.10722
324.681	7232.21122
325.008	7425.76967
325.334	7640.44261
325.661	7602.6577
325.987	7620.55491
326.314	7746.8741
326.64	7699.12266
326.966	7725.9816
327.293	7787.66952
327.619	7767.76846
327.945	7951.90793
328.271	7931.00007
328.597	7888.19274
328.923	7888.19274
329.249	7880.22922
329.575	8016.62992
329.901	7995.71863
330.227	8011.65095
330.552	8126.17902
330.878	8118.21118
331.204	8186.93616
331.529	8209.84538
331.855	8265.62526
332.18	8413.03964
332.506	8419.01549
332.831	8417.02355
333.156	8509.64209
333.482	8655.9979
333.807	8605.22849
334.132	8683.86753
334.457	8748.5533
334.782	8709.74386
335.107	8826.15217
335.432	8848.03377
335.757	8860.96266
336.082	9029.94531
336.407	9070.67321
336.732	9054.78072
337.057	9178.89319
337.381	9159.04273
337.706	9101.45994
338.031	9092.52254
338.355	9204.6943
338.68	9369.29886
339.004	9291.9823
339.329	9184.84774
339.653	9238.42642
339.977	9232.47435
340.301	9280.08301
340.626	9441.61262
340.95	9542.5754
341.274	9577.19794
341.598	9560.38267
341.922	9654.31641
342.246	9788.64483
342.57	9850.81246
342.894	9868.56793
343.218	9895.1956
343.541	9871.52689
343.865	9993.75934
344.189	10151.281
344.512	10205.38086
344.836	10193.57925
345.159	10196.52976
345.483	10343.97163
345.806	10321.37398
346.13	10411.74478
346.453	10437.27527
346.776	10227.01432
347.099	10384.2461
347.423	10519.7344
347.746	10399.96019
348.069	10647.29117
348.392	10742.43739
348.715	10500.10437
349.038	10595.29441
349.361	10641.40516
349.683	10707.12742
350.006	10797.36134
350.329	10794.41903
350.652	10921.9234
350.974	10933.69419
351.297	10907.21034
351.619	10961.16072
351.942	11167.26208
352.264	11210.47921
352.587	11285.16589
352.909	11370.73443
353.231	11238.97188
353.554	11297.94677
353.876	11294.99718
354.198	11505.6732
354.52	11650.78877
354.842	11499.75783
355.164	11677.48572
355.486	11831.04478
355.808	11677.48572
356.13	11631.02238
356.452	11697.27064
356.773	11601.38688
357.095	11465.26235
357.417	11489.90009
357.738	11516.51953
358.06	11684.40952
358.381	11733.89462
358.703	11651.77729
359.024	11680.45294
359.346	11621.14203
359.667	11818.14473
359.988	11932.40635
360.309	11871.75649
360.631	11885.66765
360.952	11974.22267
361.273	11917.48346
361.594	11964.26203
361.915	12236.25206
362.236	12189.08754
362.557	12240.26948
362.878	12360.04126
363.198	12267.4013
363.519	12245.29202
363.84	12323.75517
364.16	12323.75517
364.481	12373.15605
364.802	12353.99034
365.122	12350.96537
365.443	12381.22975
365.763	12270.41749
366.083	12168.03757
366.404	12042.02986
366.724	12060.99996
367.044	12200.11947
367.364	12121.97766
367.685	12084.97763
368.005	12045.02443
368.325	12056.00679
368.645	12249.31066
368.965	12216.17305
369.284	12074.98482
369.604	12156.01544
369.924	12203.12887
370.244	12416.57979
370.564	12664.31723
370.883	12614.38
371.203	12682.68558
371.522	12707.19694
371.842	12984.54896
372.161	13023.81727
372.481	12702.0885
372.8	12663.29714
373.119	12724.57317
373.439	12845.50614
373.758	12801.37219
374.077	12693.91709
374.396	12722.5283
374.715	12636.78897
375.034	12443.88086
375.353	12117.97562
375.672	11627.07002
375.991	11082.83123
376.31	10628.65179
376.629	10432.36585
376.948	10675.73893
377.266	11017.08213
377.585	11292.04769
377.904	11835.01484
378.222	12341.8924
378.541	12685.74824
378.859	13080.75206
379.178	13384.83955
379.496	13279.33582
379.814	12837.28952
380.133	12623.54498
380.451	12654.11819
380.769	12509.71851
381.087	12369.12008
381.405	12329.79963
381.723	12399.40413
382.041	12503.63444
382.359	12521.89082
382.677	12533.05366
382.995	12853.72534
383.313	12822.91665
383.631	12530.00879
383.949	12630.67553
384.266	12896.91844
384.584	13113.93068
384.901	13073.49938
385.219	13028.98835
385.537	13127.42043
385.854	13040.36812
386.171	12917.51148
386.489	13209.52883
386.806	13085.93368
387.123	12887.65681
387.441	12970.09597
387.758	12965.96796
388.075	12828.04891
388.392	12746.054
388.709	12687.79021
389.026	12544.22119
389.343	12679.62329
389.66	12768.57682
389.977	12738.89175
390.294	12758.33675
390.61	12942.24424
390.927	13147.14743
391.244	12855.78054
391.56	12636.78897
391.877	12788.04408
392.193	12837.28952
392.51	12852.6978
392.826	12779.84556
393.143	12821.89032
393.459	12976.28916
393.775	12952.55632
394.092	12963.9042
394.408	12995.91029
394.724	12936.0589
395.04	12942.24424
395.356	13138.83971
395.672	13366.01442
395.988	13479.09683
396.304	13739.66232
396.62	13865.92289
396.936	13838.5694
397.252	13904.83952
397.567	13963.70683
397.883	14074.95
398.199	13978.41517
398.514	13951.09669
398.83	13940.58629
399.146	13621.8753
399.461	13669.1853
399.777	13699.68591
400.092	13653.41252
400.407	13639.74495
400.723	13384.83955
401.038	13076.60744
401.353	13033.1259
401.668	13092.15287
401.983	13054.85822
402.298	12955.65072
402.613	12705.15345
402.928	12649.02016
403.243	12573.68546
403.558	12591.9902
403.873	12925.75318
404.188	12793.16947
404.503	12648.00068
404.817	12738.89175
405.132	12686.76921
405.447	12892.80176
405.761	12776.77178
406.076	12579.78562
406.39	12805.47452
406.705	12959.77714
407.019	13092.15287
407.334	13167.92691
407.648	13007.27636
407.962	12848.58803
408.276	12848.58803
408.591	12857.83591
408.905	12892.80176
409.219	13127.42043
409.533	13109.78125
409.847	12992.81127
410.161	13070.39166
410.475	13161.69155
410.789	13107.70676
411.102	12966.9999
411.416	13073.49938
411.73	13135.72492
412.044	13191.8411
412.357	13131.57238
412.671	12979.38629
412.984	13144.03176
413.298	13144.03176
413.611	12986.6143
413.925	12873.25628
414.238	12833.18217
414.552	12869.1433
414.865	12762.43229
415.178	12801.37219
415.491	12717.41684
415.804	12641.88461
416.118	12704.13176
416.431	12499.57916
416.744	12439.83454
417.057	12526.96426
417.37	12482.35104
417.683	12262.37501
417.995	12191.09305
418.308	12219.18405
418.621	12262.37501
418.934	12173.04817
419.246	12262.37501
419.559	12478.29897
419.872	12723.55072
420.184	12994.87724
420.497	12959.77714
420.809	12937.08969
421.121	12636.78897
421.434	12486.40372
421.746	12646.98123
422.058	12565.5541
422.371	12366.09348
422.683	12234.24356
422.995	12006.11548
423.307	12074.98482
423.619	12295.56452
423.931	12171.04383
424.243	12018.08277
424.555	11954.30415
424.867	11846.92736
425.179	11792.35662
425.491	11715.08411
425.802	11641.89295
426.114	11598.42423
426.426	11545.12366
426.737	11524.40896
427.049	11519.47795
427.361	11611.26354
427.672	11637.93975
427.984	11550.05681
428.295	11575.71596
428.606	11528.35407
428.918	11318.59654
429.229	11428.81505
429.54	11411.09075
429.851	11058.29549
430.163	10907.21034
430.474	10851.30384
430.785	11015.11977
431.096	11273.36966
431.407	11215.39123
431.718	11073.99799
432.029	10885.63188
432.339	10873.86212
432.65	11049.46338
432.961	10993.5349
433.272	10896.42101
433.582	10993.5349
433.893	10924.86607
434.204	10884.65106
434.514	11024.9317
434.825	10983.72417
435.135	10955.27486
435.446	11071.05367
435.756	11191.81542
436.066	11199.6735
436.377	11175.11864
436.687	11152.53229
436.997	11080.86825
437.307	11177.08285
437.617	11197.70893
437.927	10990.59165
438.237	11012.17627
438.547	11099.51745
438.857	11113.26028
439.167	11339.25109
439.477	11421.92175
439.787	11414.0445
440.097	11448.5139
440.407	11329.41498
440.716	11127.00431
441.026	11057.31412
441.336	11180.02923
441.645	11089.70183
441.955	10883.67024
442.264	10875.82373
442.574	10989.61057
442.883	10900.34438
443.192	10783.63053
443.502	10863.07331
443.811	10791.47671
444.12	10762.05335
444.429	10700.26136
444.739	10591.36977
445.048	10600.20014
445.357	10570.76445
445.666	10719.87846
445.975	10657.10097
446.284	10439.239
446.593	10388.17477
446.901	10362.63671
447.21	10587.44507
447.519	10570.76445
447.828	10228.98082
448.136	10196.52976
448.445	10582.53911
448.754	10647.29117
449.062	10375.40625
449.371	10494.21501
449.679	10736.55252
449.988	10892.49767
450.296	11283.19975
450.605	11586.57527
450.913	11699.24958
451.221	12071.98757
451.529	12435.78881
451.838	12381.22975
452.146	11939.37242
452.454	11778.4772
452.762	11907.53816
453.07	11466.24768
453.378	11197.70893
453.686	11326.46436
453.994	11352.03975
454.302	11186.90437
454.609	10735.5717
454.917	10518.75294
455.225	10528.56733
455.533	10494.21501
455.84	10380.31734
456.148	10381.29954
456.455	10226.03106
456.763	10186.69447
457.07	10482.43576
457.378	10562.91438
457.685	10566.83945
457.993	10590.3886
458.3	10633.55699
458.607	10713.9934
458.915	10770.88041
459.222	10951.35101
459.529	10933.69419
459.836	10871.90051
460.143	10708.10828
460.45	10410.76277
460.757	10501.08592
461.064	10650.23414
461.371	10632.57595
461.678	10583.52031
461.985	10687.50985
462.292	10924.86607
462.598	11352.03975
462.905	11624.10594
463.212	11749.74108
463.518	12051.01436
463.825	12242.27839
464.131	12566.57038
464.438	12783.9445
464.744	12507.69034
465.051	12232.23519
465.357	12298.58363
465.664	12247.30127
465.97	11744.78847
466.276	11595.46175
466.582	11502.71545
466.889	11343.18586
467.195	11504.68727
467.501	12010.10412
467.807	12939.15139
468.113	13755.44466
468.419	14416.85454
468.725	14834.56132
469.031	15141.6465
469.337	15209.07506
469.642	14992.97722
469.948	14696.76208
470.254	14520.05657
470.56	14222.29325
470.865	13563.04182
471.171	13088.00659
471.477	12836.26262
471.782	12352.98198
472.088	12040.03362
472.393	12115.97478
472.698	11744.78847
473.004	11489.90009
473.309	11641.89295
473.614	11813.18424
473.92	12270.41749
474.225	12404.45468
474.53	12265.39068
474.835	12224.20305
475.14	12006.11548
475.445	11775.50363
475.75	11321.54689
476.055	10936.63694
476.36	10752.24542
476.665	10375.40625
476.97	10143.40994
477.275	10224.06452
477.58	10290.91071
477.885	10145.37776
478.189	9852.78544
478.494	9751.12915
478.799	9726.44049
479.103	9756.06619
479.408	9834.04067
479.712	10054.82461
480.017	10193.57925
480.321	10297.79008
480.625	10413.7088
480.93	10484.39901
481.234	10955.27486
481.538	11457.38021
481.843	11755.68495
482.147	11932.40635
482.451	12110.97323
482.755	12418.60116
483.059	12497.55175
483.363	12475.26032
483.667	12640.8654
483.971	12692.89584
484.275	12637.80802
484.579	12862.97503
484.883	12957.71385
485.187	12729.68604
485.49	12662.2771
485.794	12509.71851
486.098	12371.13799
486.401	12421.63349
486.705	12328.79213
487.009	12095.97324
487.312	12092.97407
487.616	12130.98411
487.919	11898.58963
488.222	11823.10581
488.526	11926.43648
488.829	11911.51597
489.132	11997.14271
489.436	11944.34898
489.739	11893.61912
490.042	11939.37242
490.345	11884.67383
490.648	11913.50503
490.951	11946.3398
491.254	12033.04773
491.557	12196.1074
491.86	12235.24779
492.163	12488.43029
492.466	12890.74366
492.769	13288.72425
493.072	13612.41655
493.375	13802.79482
493.677	13892.21943
493.98	13844.8821
494.283	13638.69368
494.585	13318.9935
494.888	13088.00659
495.19	12861.94712
495.493	12729.68604
495.795	12486.40372
496.098	12247.30127
496.4	12124.97953
496.702	11976.21513
497.005	11878.71145
497.307	11862.81621
497.609	11866.78942
497.911	11986.1791
498.213	11909.52701
498.515	11635.96326
498.818	11649.80027
499.12	11867.78279
499.422	11838.98529
499.723	11753.70357
500.025	11747.75997
500.327	11655.73157
500.629	11708.15585
500.931	11809.21628
501.233	11794.33976
501.534	11807.23244
501.836	11758.65718
502.138	11731.91421
502.439	11696.2812
502.741	11714.0943
503.042	11827.0751
503.344	11818.14473
503.645	11886.66149
503.947	11937.38198
504.248	11954.30415
504.55	11881.69253
504.851	11948.33072
505.152	12134.98779
505.453	12006.11548
505.755	11853.87795
506.056	11721.02344
506.357	11824.09809
506.658	11930.41629
506.959	11750.73167
507.26	11820.12909
507.561	11803.26504
507.862	11742.80757
508.163	11759.64797
508.464	11664.62983
508.764	11706.17653
509.065	11607.31266
509.366	11588.54992
509.667	11671.55181
509.967	11570.78061
510.268	11508.6311
510.569	11624.10594
510.869	11590.52464
511.17	11430.78469
511.47	11548.0835
511.771	11587.56259
512.071	11582.62619
512.371	11569.79359
512.672	11427.83025
512.972	11391.40208
513.272	11418.96768
513.573	11231.11111
513.873	11213.4264
514.173	11243.88515
514.473	11181.01137
514.773	11231.11111
515.073	11196.72666
515.373	11133.87679
515.673	11153.51422
515.973	11120.13214
516.273	11038.6691
516.573	10879.74698
516.873	10756.1686
517.172	10815.99595
517.472	10833.64982
517.772	10848.36149
518.072	10809.13056
518.371	10797.36134
518.671	10823.8421
518.97	10797.36134
