Data from white_1_6_ST026791__132__22491.txt Node

Date: Tue Aug 19 16:20:31 AEST 2025
User: mathewyoussef
Spectrometer: ST02679
Trigger mode: 0
Integration Time (sec): 6.653700E-1
Scans to average: 1
Nonlinearity correction enabled: true
Boxcar width: 0
Storing dark spectrum: false
XAxis mode: Wavelengths
Number of Pixels in Spectrum: 1516
>>>>>Begin Spectral Data<<<<<
187.304	582.05997
187.653	582.05997
188.002	595.8511
188.351	584.18248
188.7	568.25651
189.048	569.31875
189.397	609.63015
189.746	605.39171
190.094	568.25651
190.443	593.73018
190.791	605.39171
191.14	630.80567
191.488	625.51436
191.837	588.42663
192.185	585.24363
192.533	576.75242
192.881	584.18248
193.229	574.62889
193.577	588.42663
193.925	604.33193
194.273	588.42663
194.621	602.21215
194.969	575.69069
195.317	539.54717
195.664	592.66961
196.012	597.97173
196.359	561.88144
196.707	590.54827
197.054	574.62889
197.402	578.87566
197.749	618.10366
198.096	614.92662
198.443	600.09208
198.791	599.03194
199.138	583.12126
199.485	565.06931
199.832	578.87566
200.179	579.93717
200.525	558.69289
200.872	555.50366
201.219	582.05997
201.566	597.97173
201.912	582.05997
202.259	575.69069
202.605	585.24363
202.952	610.68958
203.298	597.97173
203.644	588.42663
203.991	602.21215
204.337	574.62889
204.683	585.24363
205.029	590.54827
205.375	570.38093
205.721	611.74894
206.067	656.18062
206.413	650.89731
206.759	611.74894
207.104	559.75581
207.45	570.38093
207.796	595.8511
208.141	577.81408
208.487	612.80824
208.832	625.51436
209.177	570.38093
209.523	585.24363
209.868	609.63015
210.213	614.92662
210.558	629.74755
210.903	635.0375
211.248	601.15215
211.593	577.81408
211.938	600.09208
212.283	612.80824
212.628	586.3047
212.973	568.25651
213.317	583.12126
213.662	597.97173
214.007	602.21215
214.351	594.79068
214.696	595.8511
215.04	566.13178
215.384	558.69289
215.729	607.51107
216.073	602.21215
216.417	590.54827
216.761	608.57064
217.105	618.10366
217.449	630.80567
217.793	620.22135
218.137	611.74894
218.481	614.92662
218.824	605.39171
219.168	589.48748
219.512	593.73018
219.855	587.3657
220.199	574.62889
220.542	594.79068
220.886	632.92172
221.229	604.33193
221.572	574.62889
221.916	585.24363
222.259	580.99861
222.602	589.48748
222.945	584.18248
223.288	580.99861
223.631	570.38093
223.974	572.50506
224.317	576.75242
224.659	604.33193
225.002	620.22135
225.345	569.31875
225.687	578.87566
226.03	618.10366
226.372	600.09208
226.715	572.50506
227.057	574.62889
227.4	613.86746
227.742	630.80567
228.084	614.92662
228.426	613.86746
228.768	607.51107
229.11	600.09208
229.452	591.60898
229.794	558.69289
230.136	552.31374
230.478	590.54827
230.82	597.97173
231.161	576.75242
231.503	620.22135
231.845	625.51436
232.186	630.80567
232.528	657.23708
232.869	601.15215
233.21	591.60898
233.552	600.09208
233.893	591.60898
234.234	594.79068
234.575	596.91145
234.916	612.80824
235.257	618.10366
235.598	620.22135
235.939	610.68958
236.28	593.73018
236.621	562.94414
236.961	587.3657
237.302	626.57276
237.643	609.63015
237.983	582.05997
238.324	577.81408
238.664	643.49793
239.005	621.28009
239.345	582.05997
239.685	606.45143
240.025	583.12126
240.366	569.31875
240.706	599.03194
241.046	602.21215
241.386	582.05997
241.726	577.81408
242.066	574.62889
242.405	561.88144
242.745	600.09208
243.085	614.92662
243.425	578.87566
243.764	596.91145
244.104	677.2977
244.443	666.74236
244.783	600.09208
245.122	594.79068
245.461	589.48748
245.801	606.45143
246.14	596.91145
246.479	560.81866
246.818	551.25029
247.157	605.39171
247.496	629.74755
247.835	621.28009
248.174	638.21066
248.513	599.03194
248.852	643.49793
249.19	645.61237
249.529	565.06931
249.868	577.81408
250.206	583.12126
250.545	591.60898
250.883	592.66961
251.221	597.97173
251.56	602.21215
251.898	573.56701
252.236	574.62889
252.574	572.50506
252.912	559.75581
253.25	588.42663
253.588	608.57064
253.926	630.80567
254.264	629.74755
254.602	606.45143
254.94	587.3657
255.278	569.31875
255.615	553.37712
255.953	582.05997
256.29	625.51436
256.628	602.21215
256.965	568.25651
257.303	569.31875
257.64	621.28009
257.977	620.22135
258.314	602.21215
258.652	589.48748
258.989	587.3657
259.326	575.69069
259.663	561.88144
260	599.03194
260.337	578.87566
260.673	560.81866
261.01	587.3657
261.347	580.99861
261.684	556.56681
262.02	609.63015
262.357	635.0375
262.693	574.62889
263.03	567.19418
263.366	605.39171
263.702	606.45143
264.039	601.15215
264.375	618.10366
264.711	625.51436
265.047	590.54827
265.383	558.69289
265.719	570.38093
266.055	603.27207
266.391	646.66949
266.727	600.09208
267.063	579.93717
267.399	610.68958
267.734	602.21215
268.07	606.45143
268.405	593.73018
268.741	579.93717
269.076	596.91145
269.412	588.42663
269.747	606.45143
270.082	614.92662
270.418	583.12126
270.753	603.27207
271.088	625.51436
271.423	574.62889
271.758	565.06931
272.093	608.57064
272.428	576.75242
272.763	556.56681
273.098	574.62889
273.433	601.15215
273.767	595.8511
274.102	558.69289
274.436	561.88144
274.771	605.39171
275.106	627.63109
275.44	599.03194
275.774	583.12126
276.109	609.63015
276.443	586.3047
276.777	557.62989
277.111	610.68958
277.445	626.57276
277.78	648.78353
278.114	651.95411
278.447	608.57064
278.781	614.92662
279.115	610.68958
279.449	596.91145
279.783	609.63015
280.116	609.63015
280.45	590.54827
280.784	613.86746
281.117	651.95411
281.451	617.04472
281.784	682.573
282.117	721.56251
282.451	658.29348
282.784	643.49793
283.117	628.68935
283.45	649.84046
283.783	660.40609
284.116	673.07633
284.449	686.79211
284.782	715.24549
285.115	756.26888
285.448	732.0862
285.781	712.08617
286.114	698.38958
286.446	709.97967
286.779	803.49866
287.111	764.67329
287.444	696.2815
287.776	733.13825
288.109	784.61975
288.441	788.81654
288.773	803.49866
289.106	919.56659
289.438	940.42038
289.77	913.30712
290.102	972.71103
290.434	970.62893
290.766	1042.37293
291.098	1071.43711
291.43	1039.25729
291.762	1081.81067
292.094	1092.18088
292.425	1121.20015
292.757	1145.01893
293.089	1195.7105
293.42	1221.54725
293.752	1256.65824
294.083	1347.39955
294.414	1373.14547
294.746	1354.6098
295.077	1414.31084
295.408	1522.21735
295.74	1619.67479
296.071	1623.77495
296.402	1581.73591
296.733	1667.83557
297.064	1722.10366
297.395	1712.8913
297.726	1816.20763
298.056	1982.65343
298.387	2039.7585
298.718	2086.63704
299.049	2196.59752
299.379	2182.35143
299.71	2144.68952
300.04	2223.04821
300.371	2282.02388
300.701	2309.46404
301.031	2408.98633
301.362	2536.76766
301.692	2601.59517
302.022	2642.08544
302.352	2685.5891
302.682	2729.06829
303.012	2767.47116
303.342	2840.18087
303.672	2893.65783
304.002	2996.46543
304.332	3108.17641
304.662	3157.43377
304.992	3190.58742
305.321	3151.40413
305.651	3239.78623
305.98	3378.15657
306.31	3418.21145
306.639	3447.23648
306.969	3519.24508
307.298	3629.1115
307.628	3622.12526
307.957	3686.97027
308.286	3809.51152
308.615	3930.84762
308.944	4082.73279
309.273	4078.7658
309.602	4067.85552
309.931	4183.82368
310.26	4291.71414
310.589	4411.32626
310.918	4539.66726
311.247	4627.44049
311.575	4544.60022
311.904	4556.43839
312.233	4746.6669
312.561	4816.57546
312.89	4863.81851
313.218	5048.72812
313.546	5198.11659
313.875	5154.88058
314.203	5157.82867
314.531	5211.87236
314.859	5275.73225
315.188	5404.41254
315.516	5533.0818
315.844	5549.77966
316.172	5579.24702
316.5	5711.86519
316.827	5786.5408
317.155	5775.73155
317.483	5904.48468
317.811	5966.42629
318.138	6014.61468
318.466	6170.07671
318.794	6202.56344
319.121	6208.47079
319.449	6297.10666
319.776	6362.13827
320.103	6375.93648
320.431	6522.87101
320.758	6624.53481
321.085	6563.32993
321.412	6689.71949
321.739	6713.43105
322.066	6644.28434
322.393	6749.99485
322.72	6813.26471
323.047	6950.78578
323.374	7077.55242
323.701	7078.54326
324.028	7119.17411
324.354	7199.48049
324.681	7272.88716
325.008	7384.05931
325.334	7441.66219
325.661	7416.83081
325.987	7483.3874
326.314	7572.83275
326.64	7534.06754
326.966	7646.40931
327.293	7795.63039
327.619	7710.0648
327.945	7782.69411
328.271	7862.31206
328.597	7880.22922
328.923	7973.81268
329.249	8018.62152
329.575	8065.42649
329.901	8044.5131
330.227	8090.32439
330.552	8104.26764
330.878	7990.7399
331.204	8003.68472
331.529	8091.32033
331.855	8291.52318
332.18	8438.93463
332.506	8409.05571
332.831	8445.90618
333.156	8577.35167
333.482	8623.14807
333.807	8552.45979
334.132	8598.2595
334.457	8661.9702
334.782	8714.71977
335.107	8817.19991
335.432	8763.4783
335.757	8798.29941
336.082	8978.27476
336.407	8949.45124
336.732	8906.70383
337.057	9045.84045
337.381	9148.12372
337.706	9108.41086
338.031	9085.57084
338.355	9175.91581
338.68	9232.47435
339.004	9126.28306
339.329	9267.1908
339.653	9400.01304
339.977	9304.87188
340.301	9383.1708
340.626	9500.02398
340.95	9569.2852
341.274	9580.16507
341.598	9435.67076
341.922	9498.04444
342.246	9721.50206
342.57	9803.44997
342.894	9858.70415
343.218	9944.48865
343.541	10030.20551
343.865	10086.32931
344.189	10139.47423
344.512	10212.26463
344.836	10185.7109
345.159	10134.5544
345.483	10176.85841
345.806	10110.93641
346.13	10234.88014
346.453	10334.14699
346.776	10256.50872
347.099	10295.82458
347.423	10318.4262
347.746	10344.95406
348.069	10538.38129
348.392	10559.97054
348.715	10484.39901
349.038	10597.25672
349.361	10598.23786
349.683	10658.08194
350.006	10774.80354
350.329	10915.05725
350.652	10926.82786
350.974	10818.93825
351.297	10803.24595
351.619	10919.96164
351.942	11165.29802
352.264	11197.70893
352.587	11230.12855
352.909	11295.98037
353.231	11226.19841
353.554	11243.88515
353.876	11240.93716
354.198	11382.54384
354.52	11595.46175
354.842	11571.76764
355.164	11639.91631
355.486	11693.313
355.808	11578.67738
356.13	11569.79359
356.452	11598.42423
356.773	11522.43651
357.095	11440.63369
357.417	11516.51953
357.738	11593.48685
358.06	11768.56607
358.381	11695.29178
358.703	11575.71596
359.024	11701.22861
359.346	11706.17653
359.667	11604.34969
359.988	11509.6171
360.309	11777.48599
360.631	11894.61317
360.952	11930.41629
361.273	12001.13032
361.594	12053.01124
361.915	12294.55822
362.236	12326.77724
362.557	12235.24779
362.878	12183.0718
363.198	12241.27392
363.519	12230.22695
363.84	12185.07691
364.16	12260.36473
364.481	12275.44516
364.802	12191.09305
365.122	12362.05852
365.443	12333.82998
365.763	12185.07691
366.083	12287.51511
366.404	12110.97323
366.724	12095.97324
367.044	12117.97562
367.364	11933.40142
367.685	11947.33525
368.005	11982.19318
368.325	11998.13957
368.645	12199.1164
368.965	12203.12887
369.284	12012.09861
369.604	12084.97763
369.924	12323.75517
370.244	12487.41699
370.564	12701.06693
370.883	12742.98422
371.203	12604.20045
371.522	12594.02484
371.842	12754.24185
372.161	12723.55072
372.481	12571.65238
372.8	12673.49978
373.119	12749.12414
373.439	12925.75318
373.758	12868.11515
374.077	12768.57682
374.396	12807.52593
374.715	12675.54079
375.034	12478.29897
375.353	12116.97518
375.672	11636.9515
375.991	11140.74958
376.31	10741.45658
376.629	10411.74478
376.948	10585.4827
377.266	11001.38374
377.585	11274.35262
377.904	11822.11354
378.222	12304.62279
378.541	12635.76997
378.859	13067.28429
379.178	13373.3342
379.496	13188.72079
379.814	12867.08705
380.133	12737.86873
380.451	12762.43229
380.769	12605.21822
381.087	12370.12901
381.405	12347.94073
381.723	12433.76617
382.041	12505.66231
382.359	12579.78562
382.677	12555.39343
382.995	12704.13176
383.313	12761.40835
383.631	12558.44122
383.949	12713.3284
384.266	12861.94712
384.584	12880.45556
384.901	12907.21296
385.219	13014.51178
385.537	13081.7883
385.854	12904.12418
386.171	12800.34671
386.489	12989.71261
386.806	12976.28916
387.123	12881.48419
387.441	12893.83087
387.758	12865.03096
388.075	12761.40835
388.392	12692.89584
388.709	12658.19732
389.026	12486.40372
389.343	12519.86172
389.66	12871.19971
389.977	12980.41874
390.294	12838.31645
390.61	13112.89327
390.927	13261.60933
391.244	12982.48377
391.56	13070.39166
391.877	13129.49633
392.193	12930.90554
392.51	12873.25628
392.826	12830.10209
393.143	12770.62532
393.459	12896.91844
393.775	12958.74548
394.092	12798.29587
394.408	12964.93606
394.724	13193.92148
395.04	13258.48212
395.356	13159.61338
395.672	13282.465
395.988	13547.29214
396.304	13725.98515
396.62	13748.07946
396.936	13716.51692
397.252	13849.09046
397.567	13932.1768
397.883	13980.51603
398.199	13892.21943
398.514	13880.64966
398.83	13933.22804
399.146	13751.23595
399.461	13687.06401
399.777	13820.68254
400.092	13895.3746
400.407	13797.53364
400.723	13515.80611
401.038	13235.55844
401.353	13090.07965
401.668	12951.52493
401.983	12878.39842
402.298	12940.1823
402.613	12805.47452
402.928	12610.3077
403.243	12562.50549
403.558	12698.00247
403.873	12882.51286
404.188	12918.54156
404.503	12825.99588
404.817	12781.89495
405.132	12787.01912
405.447	12938.12052
405.761	12807.52593
406.076	12556.40932
406.39	12740.9379
406.705	12821.89032
407.019	12908.24263
407.334	13047.61223
407.648	12907.21296
407.962	12717.41684
408.276	12756.28922
408.591	12859.89143
408.905	12889.71467
409.219	13185.6008
409.533	13235.55844
409.847	13089.0431
410.161	13098.37341
410.475	13167.92691
410.789	13137.80141
411.102	12926.78357
411.416	12935.02814
411.73	13069.35583
412.044	13154.4186
412.357	13048.64725
412.671	12835.23576
412.984	12927.814
413.298	12926.78357
413.611	12852.6978
413.925	13014.51178
414.238	12904.12418
414.552	12792.14431
414.865	12739.91481
415.178	12606.23604
415.491	12645.96183
415.804	12645.96183
416.118	12502.62056
416.431	12289.52725
416.744	12297.57722
417.057	12450.96337
417.37	12468.17145
417.683	12324.76249
417.995	12165.0316
418.308	12159.02054
418.621	12311.67007
418.934	12309.65639
419.246	12417.59045
419.559	12646.98123
419.872	12764.48031
420.184	12952.55632
420.497	13000.04286
420.809	12974.2246
421.121	12623.54498
421.434	12506.6763
421.746	12791.11919
422.058	12775.74727
422.371	12523.92008
422.683	12326.77724
422.995	12174.05039
423.307	12132.98588
423.619	12215.16946
423.931	12028.05869
424.243	11914.4996
424.555	12021.07524
424.867	11910.52148
425.179	11654.74297
425.491	11589.53727
425.802	11601.38688
426.114	11576.70308
426.426	11589.53727
426.737	11553.01689
427.049	11454.42464
427.361	11514.54733
427.672	11549.07014
427.984	11425.8607
428.295	11533.28581
428.606	11548.0835
428.918	11377.62304
429.229	11492.85725
429.54	11378.60717
429.851	10940.56064
430.163	10791.47671
430.474	10746.36061
430.785	10953.31293
431.096	11214.40881
431.407	11127.98607
431.718	11023.95049
432.029	10827.76519
432.339	10794.41903
432.65	11013.15744
432.961	10997.45929
433.272	10943.50344
433.582	10974.8948
433.893	10871.90051
434.204	10838.5537
434.514	11050.44471
434.825	10962.14171
435.135	10798.34211
435.446	10927.80876
435.756	11128.96784
436.066	11294.01401
436.377	11319.57998
436.687	11192.79765
436.997	11065.16517
437.307	11117.18702
437.617	11176.10074
437.927	11097.55428
438.237	11055.35141
438.547	11102.46224
438.857	11052.40737
439.167	11268.45498
439.477	11342.20215
439.787	11348.10457
440.097	11441.61867
440.407	11310.72941
440.716	11156.46008
441.026	11159.40599
441.336	11222.26841
441.645	10955.27486
441.955	10833.64982
442.264	10922.90429
442.574	11073.99799
442.883	11042.59423
443.192	10897.40185
443.502	10954.2939
443.811	10886.61271
444.12	10871.90051
444.429	10645.32917
444.739	10484.39901
445.048	10650.23414
445.357	10610.01136
445.666	10581.55791
445.975	10581.55791
446.284	10579.5955
446.593	10485.38063
446.901	10390.13906
447.21	10557.02667
447.519	10473.60086
447.828	10345.93649
448.136	10390.13906
448.445	10679.66261
448.754	10728.70595
449.062	10442.18455
449.371	10552.12013
449.679	10732.62925
449.988	10846.39992
450.296	11263.54055
450.605	11685.39871
450.913	11844.94169
451.221	12278.46218
451.529	12539.14446
451.838	12240.26948
452.146	11885.66765
452.454	11733.89462
452.762	11756.67567
453.07	11544.13709
453.378	11356.95899
453.686	11215.39123
453.994	11218.33854
454.302	11154.49617
454.609	10736.55252
454.917	10486.36225
455.225	10508.93811
455.533	10465.74728
455.84	10365.58362
456.148	10353.79564
456.455	10168.989
456.763	10224.06452
457.07	10448.07552
457.378	10512.8641
457.685	10507.9566
457.993	10489.30707
458.3	10504.03053
458.607	10662.98674
458.915	10896.42101
459.222	10884.65106
459.529	10780.6882
459.836	10855.22698
460.143	10690.45254
460.45	10459.85688
460.757	10534.45576
461.064	10617.86009
461.371	10668.87241
461.678	10635.51905
461.985	10637.48109
462.292	10877.78535
462.598	11280.25062
462.905	11643.86966
463.212	11805.24869
463.518	11924.44673
463.825	12261.36985
464.131	12783.9445
464.438	12772.67398
464.744	12411.52701
465.051	12242.27839
465.357	12255.33964
465.664	12207.14187
465.97	11829.05989
466.276	11556.96391
466.582	11405.1836
466.889	11503.70135
467.195	11825.0904
467.501	12290.53337
467.807	13053.82296
468.113	13776.48888
468.419	14408.63472
468.725	14832.6348
469.031	15094.26111
469.337	15225.76414
469.642	15093.37427
469.948	14792.95327
470.254	14643.0356
470.56	14179.54559
470.865	13508.46207
471.171	13197.04232
471.477	12781.89495
471.782	12219.18405
472.088	11951.31731
472.393	12022.07279
472.698	11723.99339
473.004	11343.18586
473.309	11565.84569
473.614	11990.16547
473.92	12421.63349
474.225	12552.34598
474.53	12502.62056
474.835	12461.08445
475.14	12057.00536
475.445	11699.24958
475.75	11287.13207
476.055	10931.73237
476.36	10772.84198
476.665	10406.83464
476.97	10087.3137
477.275	10157.18395
477.58	10329.23442
477.885	10386.21044
478.189	10093.21982
478.494	9868.56793
478.799	9851.79895
479.103	9788.64483
479.408	9840.94702
479.712	9963.21412
480.017	10103.0627
480.321	10265.35577
480.625	10423.52855
480.93	10675.73893
481.234	11118.16872
481.538	11525.39522
481.843	11725.97347
482.147	11915.49419
482.451	12190.09028
482.755	12528.99391
483.059	12523.92008
483.363	12460.07217
483.667	12744.00744
483.971	12854.75292
484.275	12677.58196
484.579	12780.87023
484.883	13073.49938
485.187	12890.74366
485.49	12638.82711
485.794	12525.9495
486.098	12544.22119
486.401	12501.60672
486.705	12306.63612
487.009	12053.01124
487.312	12119.97658
487.616	12327.78466
487.919	12093.97376
488.222	11923.4519
488.526	11921.46232
488.829	11935.39165
489.132	11974.22267
489.436	11751.72228
489.739	11793.34817
490.042	12015.09056
490.345	11932.40635
490.648	11818.14473
490.951	11780.4597
491.254	12003.1243
491.557	12239.26508
491.86	12364.07593
492.163	12584.87017
492.466	12877.36991
492.769	13359.74147
493.072	13709.15312
493.375	13930.07427
493.677	14070.75802
493.98	13904.83952
494.283	13637.64243
494.585	13419.37589
494.888	13167.92691
495.19	12972.16021
495.493	12927.814
495.795	12671.45894
496.098	12249.31066
496.4	12047.02095
496.702	11896.60135
497.005	11917.48346
497.307	12053.01124
497.609	11921.46232
497.911	11903.56078
498.213	11948.33072
498.515	11755.68495
498.818	11635.96326
499.12	11820.12909
499.422	11947.33525
499.723	11812.19221
500.025	11825.0904
500.327	11840.97066
500.629	11835.01484
500.931	11948.33072
501.233	11803.26504
501.534	11639.91631
501.836	11757.66642
502.138	11880.69881
502.439	11775.50363
502.741	11739.83639
503.042	11840.97066
503.344	11850.89898
503.645	11990.16547
503.947	11988.17223
504.248	11942.35828
504.55	11965.25797
504.851	11985.18258
505.152	11940.36768
505.453	11782.44229
505.755	11934.39652
506.056	11903.56078
506.357	11771.53917
506.658	11814.17629
506.959	11719.04358
507.26	11916.48881
507.561	11866.78942
507.862	11659.68616
508.163	11753.70357
508.464	11679.46384
508.764	11674.51868
509.065	11702.21815
509.366	11835.01484
509.667	11728.94374
509.967	11466.24768
510.268	11451.46921
510.569	11627.07002
510.869	11633.98685
511.17	11323.51385
511.47	11348.10457
511.771	11346.13705
512.071	11370.73443
512.371	11437.67884
512.672	11342.20215
512.972	11332.3657
513.272	11274.35262
513.573	11209.49684
513.873	11193.77989
514.173	11170.20823
514.473	11172.17237
514.773	11241.91982
515.073	11245.85053
515.373	11132.89498
515.673	11083.81273
515.973	11087.73877
516.273	11039.65038
516.573	11014.1386
516.873	10895.44018
517.172	10810.11133
517.472	10832.66905
517.772	10835.61137
518.072	10774.80354
518.371	10885.63188
518.671	10895.44018
