Data from white_1_6_ST026791__1__22360.txt Node

Date: Tue Aug 19 16:17:33 AEST 2025
User: mathewyoussef
Spectrometer: ST02679
Trigger mode: 0
Integration Time (sec): 6.653700E-1
Scans to average: 1
Nonlinearity correction enabled: true
Boxcar width: 0
Storing dark spectrum: false
XAxis mode: Wavelengths
Number of Pixels in Spectrum: 1516
>>>>>Begin Spectral Data<<<<<
187.304	608.57064
187.653	650.89731
188.002	658.29348
188.351	613.86746
188.7	573.56701
189.048	582.05997
189.397	649.84046
189.746	661.4623
190.094	613.86746
190.443	583.12126
190.791	589.48748
191.14	602.21215
191.488	554.44043
191.837	568.25651
192.185	615.9857
192.533	595.8511
192.881	561.88144
193.229	542.73986
193.577	619.16254
193.925	630.80567
194.273	584.18248
194.621	604.33193
194.969	609.63015
195.317	599.03194
195.664	606.45143
196.012	609.63015
196.359	589.48748
196.707	596.91145
197.054	592.66961
197.402	592.66961
197.749	607.51107
198.096	618.10366
198.443	599.03194
198.791	560.81866
199.138	568.25651
199.485	602.21215
199.832	597.97173
200.179	595.8511
200.525	589.48748
200.872	585.24363
201.219	597.97173
201.566	617.04472
201.912	638.21066
202.259	625.51436
202.605	592.66961
202.952	586.3047
203.298	591.60898
203.644	593.73018
203.991	594.79068
204.337	585.24363
204.683	579.93717
205.029	573.56701
205.375	564.00676
205.721	595.8511
206.067	628.68935
206.413	630.80567
206.759	602.21215
207.104	579.93717
207.45	599.03194
207.796	587.3657
208.141	558.69289
208.487	575.69069
208.832	588.42663
209.177	578.87566
209.523	594.79068
209.868	599.03194
210.213	585.24363
210.558	558.69289
210.903	579.93717
211.248	570.38093
211.593	561.88144
211.938	582.05997
212.283	618.10366
212.628	640.32577
212.973	593.73018
213.317	556.56681
213.662	559.75581
214.007	594.79068
214.351	585.24363
214.696	584.18248
215.04	605.39171
215.384	604.33193
215.729	600.09208
216.073	603.27207
216.417	608.57064
216.761	623.39736
217.105	644.55518
217.449	622.33876
217.793	625.51436
218.137	641.38322
218.481	623.39736
218.824	629.74755
219.168	630.80567
219.512	603.27207
219.855	579.93717
220.199	582.05997
220.542	566.13178
220.886	585.24363
221.229	602.21215
221.572	593.73018
221.916	610.68958
222.259	607.51107
222.602	596.91145
222.945	576.75242
223.288	570.38093
223.631	568.25651
223.974	568.25651
224.317	578.87566
224.659	606.45143
225.002	613.86746
225.345	588.42663
225.687	599.03194
226.03	602.21215
226.372	600.09208
226.715	600.09208
227.057	561.88144
227.4	578.87566
227.742	635.0375
228.084	611.74894
228.426	585.24363
228.768	579.93717
229.11	574.62889
229.452	589.48748
229.794	588.42663
230.136	596.91145
230.478	602.21215
230.82	579.93717
231.161	584.18248
231.503	651.95411
231.845	672.02082
232.186	674.13176
232.528	647.72654
232.869	579.93717
233.21	580.99861
233.552	571.44303
233.893	572.50506
234.234	580.99861
234.575	587.3657
234.916	599.03194
235.257	570.38093
235.598	584.18248
235.939	619.16254
236.28	608.57064
236.621	600.09208
236.961	623.39736
237.302	647.72654
237.643	615.9857
237.983	565.06931
238.324	589.48748
238.664	643.49793
239.005	605.39171
239.345	585.24363
239.685	617.04472
240.025	618.10366
240.366	607.51107
240.706	605.39171
241.046	620.22135
241.386	607.51107
241.726	597.97173
242.066	574.62889
242.405	556.56681
242.745	583.12126
243.085	574.62889
243.425	552.31374
243.764	595.8511
244.104	676.24245
244.443	677.2977
244.783	632.92172
245.122	618.10366
245.461	609.63015
245.801	625.51436
246.14	629.74755
246.479	623.39736
246.818	592.66961
247.157	613.86746
247.496	637.15301
247.835	590.54827
248.174	576.75242
248.513	580.99861
248.852	641.38322
249.19	617.04472
249.529	567.19418
249.868	604.33193
250.206	580.99861
250.545	575.69069
250.883	588.42663
251.221	595.8511
251.56	603.27207
251.898	594.79068
252.236	633.97964
252.574	626.57276
252.912	595.8511
253.25	595.8511
253.588	597.97173
253.926	615.9857
254.264	614.92662
254.602	604.33193
254.94	618.10366
255.278	610.68958
255.615	576.75242
255.953	589.48748
256.29	609.63015
256.628	580.99861
256.965	546.99569
257.303	569.31875
257.64	640.32577
257.977	635.0375
258.314	572.50506
258.652	571.44303
258.989	592.66961
259.326	599.03194
259.663	605.39171
260	622.33876
260.337	597.97173
260.673	565.06931
261.01	569.31875
261.347	574.62889
261.684	576.75242
262.02	594.79068
262.357	603.27207
262.693	589.48748
263.03	593.73018
263.366	623.39736
263.702	615.9857
264.039	590.54827
264.375	606.45143
264.711	630.80567
265.047	618.10366
265.383	591.60898
265.719	592.66961
266.055	617.04472
266.391	640.32577
266.727	615.9857
267.063	610.68958
267.399	611.74894
267.734	593.73018
268.07	594.79068
268.405	607.51107
268.741	620.22135
269.076	604.33193
269.412	584.18248
269.747	585.24363
270.082	573.56701
270.418	595.8511
270.753	602.21215
271.088	596.91145
271.423	597.97173
271.758	567.19418
272.093	612.80824
272.428	609.63015
272.763	582.05997
273.098	597.97173
273.433	628.68935
273.767	623.39736
274.102	568.25651
274.436	569.31875
274.771	610.68958
275.106	601.15215
275.44	589.48748
275.774	612.80824
276.109	605.39171
276.443	594.79068
276.777	597.97173
277.111	618.10366
277.445	609.63015
277.78	603.27207
278.114	618.10366
278.447	604.33193
278.781	602.21215
279.115	601.15215
279.449	578.87566
279.783	613.86746
280.116	605.39171
280.45	588.42663
280.784	668.85394
281.117	658.29348
281.451	605.39171
281.784	713.13934
282.117	709.97967
282.451	624.4559
282.784	642.44061
283.117	660.40609
283.45	665.68648
283.783	644.55518
284.116	648.78353
284.449	662.51844
284.782	678.35288
285.115	765.72359
285.448	757.31963
285.781	684.68268
286.114	666.74236
286.446	670.96526
286.779	772.02426
287.111	783.57042
287.444	721.56251
287.776	756.26888
288.109	829.69168
288.441	808.7398
288.773	766.77384
289.106	889.29785
289.438	927.91014
289.77	889.29785
290.102	947.71525
290.434	961.25751
290.766	1040.29587
291.098	1067.28675
291.43	1094.25453
291.762	1124.30788
292.094	1106.69367
292.425	1102.54781
292.757	1147.08936
293.089	1208.11429
293.42	1188.4731
293.752	1242.20445
294.083	1345.33927
294.414	1387.55721
294.746	1399.9068
295.077	1457.49901
295.408	1512.97638
295.74	1647.34589
296.071	1686.27101
296.402	1661.68932
296.733	1707.7728
297.064	1720.05657
297.395	1697.53468
297.726	1738.47827
298.056	1967.35072
298.387	2071.35344
298.718	2053.00944
299.049	2121.26963
299.379	2166.06725
299.71	2241.3554
300.04	2292.18794
300.371	2271.85859
300.701	2291.17159
301.031	2416.09052
301.362	2527.64708
301.692	2531.70079
302.022	2563.11019
302.352	2710.87069
302.682	2778.58415
303.012	2773.533
303.342	2827.05796
303.672	2833.11497
304.002	2980.34844
304.332	3125.26964
304.662	3174.51491
304.992	3232.75998
305.321	3262.86741
305.651	3341.0848
305.98	3392.17846
306.31	3431.2242
306.639	3523.24333
306.969	3604.15736
307.298	3634.10125
307.628	3764.70423
307.957	3832.40207
308.286	3870.20514
308.615	3928.86014
308.944	3909.97642
309.273	4036.10774
309.602	4178.87122
309.931	4279.84302
310.26	4316.44046
310.589	4360.93047
310.918	4432.0696
311.247	4582.08329
311.575	4658.98276
311.904	4705.29548
312.233	4877.59503
312.561	4875.62703
312.89	4918.91764
313.218	5109.67274
313.546	5180.42981
313.875	5100.82686
314.203	5104.7584
314.531	5223.66261
314.859	5380.83899
315.188	5469.2383
315.516	5480.04251
315.844	5484.95352
316.172	5499.68658
316.5	5661.76137
316.827	5815.03961
317.155	5862.21586
317.483	5888.75596
317.811	5841.57531
318.138	5957.57649
318.466	6274.4506
318.794	6279.37555
319.121	6181.88936
319.449	6374.95085
319.776	6464.67058
320.103	6379.87906
320.431	6484.3968
320.758	6588.00595
321.085	6588.00595
321.412	6758.8903
321.739	6813.26471
322.066	6790.52354
322.393	6909.21724
322.72	6957.71516
323.047	6887.44856
323.374	6995.33824
323.701	7072.59831
324.028	7103.31671
324.354	7260.98082
324.681	7265.94168
325.008	7434.70902
325.334	7505.2476
325.661	7477.42601
325.987	7621.54924
326.314	7655.35969
326.64	7751.84878
326.966	7887.19729
327.293	7827.47632
327.619	7814.53845
327.945	7947.92539
328.271	7898.14743
328.597	7868.28433
328.923	7947.92539
329.249	7941.95166
329.575	7947.92539
329.901	7976.79978
330.227	8054.47176
330.552	8102.27573
330.878	8065.42649
331.204	8059.45116
331.529	8144.10697
331.855	8208.84932
332.18	8301.48388
332.506	8379.17565
332.831	8389.13579
333.156	8558.43399
333.482	8670.92841
333.807	8651.02089
334.132	8691.82975
334.457	8696.80602
334.782	8785.36651
335.107	8975.29325
335.432	8891.78949
335.757	8891.78949
336.082	8989.20648
336.407	9002.12482
336.732	9043.85365
337.057	9027.9583
337.381	9154.07965
337.706	9144.15295
338.031	9075.63926
338.355	9220.56936
338.68	9347.49675
339.004	9304.87188
339.329	9263.2237
339.653	9336.59417
339.977	9399.02239
340.301	9357.4073
340.626	9369.29886
340.95	9554.44724
341.274	9687.91459
341.598	9584.12111
341.922	9617.74154
342.246	9763.96497
342.57	9834.04067
342.894	9900.12592
343.218	9908.01396
343.541	9911.95777
343.865	10028.23575
344.189	10208.33109
344.512	10317.44359
344.836	10329.23442
345.159	10189.64514
345.483	10185.7109
345.806	10273.21934
346.13	10417.63677
346.453	10307.61717
346.776	10119.79371
347.099	10409.78074
347.423	10444.14823
347.746	10307.61717
348.069	10575.67063
348.392	10714.97425
348.715	10587.44507
349.038	10594.31326
349.361	10617.86009
349.683	10630.61388
350.006	10694.37609
350.329	10794.41903
350.652	10863.07331
350.974	10976.85686
351.297	11075.9609
351.619	11180.02923
351.942	11306.7961
352.264	11262.55769
352.587	11325.48085
352.909	11339.25109
353.231	11233.07625
353.554	11254.69516
353.876	11222.26841
354.198	11317.61311
354.52	11622.12998
354.842	11652.76583
355.164	11612.2513
355.486	11631.02238
355.808	11620.1541
356.13	11650.78877
356.452	11680.45294
356.773	11645.84645
357.095	11462.30644
357.417	11450.48409
357.738	11542.16398
358.06	11705.18691
358.381	11667.59628
358.703	11504.68727
359.024	11555.97713
359.346	11600.39931
359.667	11729.93387
359.988	11834.02229
360.309	11883.68004
360.631	11943.35362
360.952	12009.10692
361.273	11867.78279
361.594	11968.24596
361.915	12301.60305
362.236	12386.27699
362.557	12401.42424
362.878	12350.96537
363.198	12320.73341
363.519	12222.19535
363.84	12231.23105
364.16	12340.88448
364.481	12275.44516
364.802	12228.21885
365.122	12427.69916
365.443	12377.19261
365.763	12183.0718
366.083	12347.94073
366.404	12310.66321
366.724	12065.99388
367.044	12074.98482
367.364	12135.98879
367.685	12100.97246
368.005	11931.41131
368.325	11999.13646
368.645	12251.32018
368.965	12132.98588
369.284	11990.16547
369.604	12166.03356
369.924	12405.46491
370.244	12545.23665
370.564	12473.23474
370.883	12442.86922
371.203	12588.93852
371.522	12792.14431
371.842	13007.27636
372.161	12806.50021
372.481	12584.87017
372.8	12692.89584
373.119	12771.64963
373.439	12941.21325
373.758	12918.54156
374.077	12722.5283
374.396	12737.86873
374.715	12624.56351
375.034	12461.08445
375.353	12075.98397
375.672	11607.31266
375.991	11162.35197
376.31	10675.73893
376.629	10435.31152
376.948	10717.91678
377.266	11212.444
377.585	11391.40208
377.904	11762.62047
378.222	12394.3545
378.541	12821.89032
378.859	13196.002
379.178	13382.74741
379.496	13307.50893
379.814	12958.74548
380.133	12715.37254
380.451	12827.02237
380.769	12636.78897
381.087	12502.62056
381.405	12445.90425
381.723	12297.57722
382.041	12302.60959
382.359	12533.05366
382.677	12596.05965
382.995	12673.49978
383.313	12760.38444
383.631	12667.37772
383.949	12661.2571
384.266	12760.38444
384.584	12958.74548
384.901	12923.69252
385.219	12897.94771
385.537	12984.54896
385.854	12962.87237
386.171	12982.48377
386.489	13072.46344
386.806	13010.37702
387.123	12974.2246
387.441	13000.04286
387.758	12805.47452
388.075	12765.50437
388.392	12760.38444
388.709	12620.48963
389.026	12591.9902
389.343	12688.81126
389.66	12921.63201
389.977	12852.6978
390.294	12805.47452
390.61	13055.89351
390.927	13127.42043
391.244	12969.06391
391.56	12992.81127
391.877	13004.17606
392.193	12797.27051
392.51	12850.64284
392.826	12916.48145
393.143	12853.72534
393.459	12795.21991
393.775	12848.58803
394.092	12904.12418
394.408	12954.61921
394.724	13053.82296
395.04	13032.09146
395.356	13095.26297
395.672	13372.28843
395.988	13646.0528
396.304	13668.1337
396.62	13742.81872
396.936	13879.59781
397.252	13941.63741
397.567	14097.99588
397.883	14156.57203
398.199	14013.06787
398.514	13938.48401
398.83	13888.01238
399.146	13772.27996
399.461	13865.92289
399.777	13763.86223
400.092	13763.86223
400.407	13759.65342
400.723	13338.83932
401.038	13098.37341
401.353	13157.53536
401.668	13207.44739
401.983	12984.54896
402.298	12830.10209
402.613	12730.70874
402.928	12670.43857
403.243	12643.92314
403.558	12607.2539
403.873	12802.39771
404.188	12867.08705
404.503	12727.64077
404.817	12729.68604
405.132	12843.45174
405.447	12895.88921
405.761	12756.28922
406.076	12609.28973
406.39	12782.9197
406.705	12950.49359
407.019	12894.86002
407.334	12968.03188
407.648	12950.49359
407.962	12817.7854
408.276	12900.00638
408.591	12992.81127
408.905	12905.15374
409.219	13071.42753
409.533	13116.00562
409.847	13051.75256
410.161	13152.34094
410.475	13235.55844
410.789	13148.18606
411.102	12796.24519
411.416	12813.68113
411.73	13200.16347
412.044	13250.14435
412.357	13085.93368
412.671	12965.96796
412.984	12950.49359
413.298	13057.96422
413.611	13030.02268
413.925	12891.77269
414.238	12763.45628
414.552	12923.69252
414.865	12921.63201
415.178	12712.30639
415.491	12538.12923
415.804	12505.66231
416.118	12602.16501
416.431	12317.71198
416.744	12308.6496
417.057	12462.09677
417.37	12353.99034
417.683	12226.21088
417.995	12124.97953
418.308	12161.0241
418.621	12321.74063
418.934	12173.04817
419.246	12187.08216
419.559	12530.00879
419.872	12742.98422
420.184	12986.6143
420.497	13041.40288
420.809	13054.85822
421.121	12815.73318
421.434	12596.05965
421.746	12715.37254
422.058	12630.67553
422.371	12315.69787
422.683	12204.13207
422.995	11961.27438
423.307	11979.20403
423.619	12167.03555
423.931	12024.06797
424.243	11886.66149
424.555	11759.64797
424.867	11831.04478
425.179	11764.60225
425.491	11662.6523
425.802	11643.86966
426.114	11593.48685
426.426	11580.65175
426.737	11502.71545
427.049	11541.17745
427.361	11598.42423
427.672	11594.47429
427.984	11481.02943
428.295	11402.23021
428.606	11391.40208
428.918	11326.46436
429.229	11294.99718
429.54	11150.56844
429.851	11021.00688
430.163	10891.51684
430.474	10858.16935
430.785	11072.03511
431.096	11202.62042
431.407	11186.90437
431.718	11165.29802
432.029	10917.019
432.339	10743.4182
432.65	10842.47681
432.961	10901.32523
433.272	10944.48438
433.582	11080.86825
433.893	10971.95174
434.204	10851.30384
434.514	10988.6295
434.825	10998.4404
435.135	10955.27486
435.446	11057.31412
435.756	11228.16346
436.066	11209.49684
436.377	11148.60461
436.687	11171.1903
436.997	11141.73144
437.307	11131.91319
437.617	11161.36997
437.927	11024.9317
438.237	11034.74404
438.547	11058.29549
438.857	11188.86876
439.167	11476.10181
439.477	11268.45498
439.787	11247.81594
440.097	11349.08835
440.407	11127.98607
440.716	11032.78154
441.026	11227.18093
441.336	11308.76273
441.645	11033.76279
441.955	10902.30607
442.264	10940.56064
442.574	11064.18377
442.883	10879.74698
443.192	10668.87241
443.502	10776.76509
443.811	10744.39901
444.12	10795.3998
444.429	10661.02483
444.739	10450.03913
445.048	10428.43822
445.357	10488.32547
445.666	10671.81522
445.975	10600.20014
446.284	10463.78383
446.593	10448.07552
446.901	10391.1212
447.21	10504.03053
447.519	10446.11189
447.828	10303.68642
448.136	10377.3707
448.445	10574.6894
448.754	10544.26946
449.062	10504.03053
449.371	10647.29117
449.679	10678.68169
449.988	10797.36134
450.296	11159.40599
450.605	11525.39522
450.913	11879.70512
451.221	12347.94073
451.529	12577.75208
451.838	12421.63349
452.146	11949.32623
452.454	11847.92023
452.762	12032.04986
453.07	11581.63896
453.378	11274.35262
453.686	11234.05883
453.994	11231.11111
454.302	11175.11864
454.609	10779.70743
454.917	10603.14354
455.225	10461.82036
455.533	10261.42382
455.84	10301.721
456.148	10224.06452
456.455	10033.16009
456.763	10235.86333
457.07	10497.15971
457.378	10514.82706
457.685	10409.78074
457.993	10323.33913
458.3	10333.16449
458.607	10554.08276
458.915	10888.57436
459.222	11015.11977
459.529	10821.88056
459.836	10784.6113
460.143	10682.60534
460.45	10423.52855
460.757	10437.27527
461.064	10514.82706
461.371	10545.25081
461.678	10575.67063
461.985	10749.30302
462.292	10982.74312
462.598	11328.43143
462.905	11608.30035
463.212	11766.58411
463.518	11965.25797
463.825	12283.49124
464.131	12751.17111
464.438	12789.06908
464.744	12414.55857
465.051	12078.98158
465.357	12202.1257
465.664	12277.45647
465.97	11732.9044
466.276	11518.49179
466.582	11440.63369
466.889	11366.79835
467.195	11719.04358
467.501	12257.34957
467.807	12977.32149
468.113	13741.76658
468.419	14430.19848
468.725	14825.88514
469.031	15105.75979
469.337	15157.21422
469.642	14972.64626
469.948	14819.12494
470.254	14618.00616
470.56	14180.58928
470.865	13512.65853
471.171	13176.24275
471.477	12831.12875
471.782	12193.09869
472.088	11911.51597
472.393	12026.06327
472.698	11711.12498
473.004	11382.54384
473.309	11619.16618
473.614	11934.39652
473.92	12288.52116
474.225	12453.9993
474.53	12319.72623
474.835	12243.2829
475.14	11970.23808
475.445	11742.80757
475.75	11440.63369
476.055	11114.24196
476.36	10785.59208
476.665	10259.45781
476.97	10061.717
477.275	10219.14803
477.58	10280.09958
477.885	10259.45781
478.189	10114.87307
478.494	9854.75838
478.799	9787.65774
479.103	9851.79895
479.408	9868.56793
479.712	9899.13988
480.017	9967.15592
480.321	10141.4421
480.625	10330.21695
480.93	10511.88261
481.234	11058.29549
481.538	11550.05681
481.843	11868.77617
482.147	12107.97268
482.451	12252.32499
482.755	12405.46491
483.059	12321.74063
483.363	12337.86091
483.667	12745.0307
483.971	12739.91481
484.275	12522.90543
484.579	12875.31302
484.883	13072.46344
485.187	12761.40835
485.49	12594.02484
485.794	12449.95147
486.098	12419.6119
486.401	12442.86922
486.705	12181.06681
487.009	12024.06797
487.312	12076.98314
487.616	12231.23105
487.919	12092.97407
488.222	11880.69881
488.526	11951.31731
488.829	11949.32623
489.132	11911.51597
489.436	11754.69425
489.739	11819.13689
490.042	11996.14587
490.345	11870.76303
490.648	11792.35662
490.951	11780.4597
491.254	11911.51597
491.557	12131.98498
491.86	12235.24779
492.163	12544.22119
492.466	12828.04891
492.769	13202.24442
493.072	13565.1421
493.375	13785.959
493.677	13878.54594
493.98	13794.37692
494.283	13659.72133
494.585	13304.37743
494.888	13028.98835
495.19	12819.83778
495.493	12710.26249
495.795	12423.65523
496.098	12134.98779
496.4	12055.00824
496.702	11996.14587
497.005	12026.06327
497.307	11984.18608
497.609	11868.77617
497.911	11943.35362
498.213	11927.43139
498.515	11811.20021
498.818	11872.74998
499.12	11893.61912
499.422	11774.51248
499.723	11635.96326
500.025	11676.49668
500.327	11602.37446
500.629	11712.11473
500.931	11745.77895
501.233	11645.84645
501.534	11760.63878
501.836	11733.89462
502.138	11750.73167
502.439	11817.15258
502.741	11823.10581
503.042	11862.81621
503.344	11931.41131
503.645	11996.14587
503.947	11982.19318
504.248	11992.15883
504.55	11948.33072
504.851	11853.87795
505.152	11876.72419
505.453	11706.17653
505.755	11631.02238
506.056	11757.66642
506.357	11826.08274
506.658	11847.92023
506.959	11821.1213
507.26	11838.98529
507.561	11738.84604
507.862	11720.0335
508.163	11679.46384
508.464	11560.9112
508.764	11691.33431
509.065	11594.47429
509.366	11507.64512
509.667	11637.93975
509.967	11570.78061
510.268	11416.99837
510.569	11389.43349
510.869	11353.02357
511.17	11333.34929
511.47	11452.45434
511.771	11403.21466
512.071	11365.81436
512.371	11373.68662
512.672	11249.78138
512.972	11313.6795
513.272	11382.54384
513.573	11248.79865
513.873	11212.444
514.173	11209.49684
514.473	11130.9314
514.773	11200.6558
515.073	11158.42401
515.373	11095.59113
515.673	10988.6295
515.973	10892.49767
516.273	10963.1227
516.573	10842.47681
516.873	10788.5344
517.172	10863.07331
517.472	10772.84198
517.772	10789.51517
518.072	10858.16935
518.371	10839.53447
518.671	10743.4182
518.97	10711.05085
