Data from white_1_6_ST026791__0__22359.txt Node

Date: Tue Aug 19 16:17:32 AEST 2025
User: mathewyoussef
Spectrometer: ST02679
Trigger mode: 0
Integration Time (sec): 6.653700E-1
Scans to average: 1
Nonlinearity correction enabled: true
Boxcar width: 0
Storing dark spectrum: false
XAxis mode: Wavelengths
Number of Pixels in Spectrum: 1516
>>>>>Begin Spectral Data<<<<<
187.304	568.25651
187.653	596.91145
188.002	625.51436
188.351	604.33193
188.7	587.3657
189.048	565.06931
189.397	588.42663
189.746	587.3657
190.094	574.62889
190.443	605.39171
190.791	597.97173
191.14	605.39171
191.488	613.86746
191.837	620.22135
192.185	611.74894
192.533	580.99861
192.881	591.60898
193.229	586.3047
193.577	601.15215
193.925	592.66961
194.273	570.38093
194.621	605.39171
194.969	617.04472
195.317	593.73018
195.664	596.91145
196.012	578.87566
196.359	566.13178
196.707	590.54827
197.054	571.44303
197.402	579.93717
197.749	613.86746
198.096	609.63015
198.443	611.74894
198.791	592.66961
199.138	568.25651
199.485	571.44303
199.832	569.31875
200.179	554.44043
200.525	573.56701
200.872	602.21215
201.219	594.79068
201.566	639.26825
201.912	646.66949
202.259	584.18248
202.605	597.97173
202.952	610.68958
203.298	572.50506
203.644	577.81408
203.991	587.3657
204.337	584.18248
204.683	583.12126
205.029	576.75242
205.375	587.3657
205.721	623.39736
206.067	632.92172
206.413	596.91145
206.759	572.50506
207.104	583.12126
207.45	592.66961
207.796	599.03194
208.141	605.39171
208.487	587.3657
208.832	611.74894
209.177	606.45143
209.523	573.56701
209.868	591.60898
210.213	600.09208
210.558	587.3657
210.903	606.45143
211.248	602.21215
211.593	572.50506
211.938	601.15215
212.283	648.78353
212.628	609.63015
212.973	561.88144
213.317	576.75242
213.662	593.73018
214.007	605.39171
214.351	600.09208
214.696	587.3657
215.04	590.54827
215.384	612.80824
215.729	617.04472
216.073	594.79068
216.417	595.8511
216.761	595.8511
217.105	609.63015
217.449	622.33876
217.793	597.97173
218.137	571.44303
218.481	595.8511
218.824	624.4559
219.168	594.79068
219.512	593.73018
219.855	608.57064
220.199	593.73018
220.542	585.24363
220.886	595.8511
221.229	612.80824
221.572	618.10366
221.916	589.48748
222.259	597.97173
222.602	607.51107
222.945	602.21215
223.288	600.09208
223.631	600.09208
223.974	599.03194
224.317	592.66961
224.659	612.80824
225.002	605.39171
225.345	594.79068
225.687	612.80824
226.03	611.74894
226.372	597.97173
226.715	605.39171
227.057	623.39736
227.4	631.86373
227.742	631.86373
228.084	607.51107
228.426	600.09208
228.768	633.97964
229.11	606.45143
229.452	578.87566
229.794	617.04472
230.136	596.91145
230.478	562.94414
230.82	562.94414
231.161	571.44303
231.503	654.06749
231.845	674.13176
232.186	657.23708
232.528	651.95411
232.869	604.33193
233.21	599.03194
233.552	601.15215
233.893	590.54827
234.234	588.42663
234.575	590.54827
234.916	605.39171
235.257	610.68958
235.598	617.04472
235.939	640.32577
236.28	623.39736
236.621	603.27207
236.961	619.16254
237.302	647.72654
237.643	637.15301
237.983	620.22135
238.324	619.16254
238.664	650.89731
239.005	604.33193
239.345	541.6757
239.685	589.48748
240.025	594.79068
240.366	607.51107
240.706	623.39736
241.046	603.27207
241.386	592.66961
241.726	594.79068
242.066	593.73018
242.405	575.69069
242.745	603.27207
243.085	613.86746
243.425	596.91145
243.764	613.86746
244.104	685.73743
244.443	689.9558
244.783	627.63109
245.122	589.48748
245.461	579.93717
245.801	619.16254
246.14	600.09208
246.479	578.87566
246.818	582.05997
247.157	612.80824
247.496	646.66949
247.835	590.54827
248.174	551.25029
248.513	566.13178
248.852	636.09528
249.19	655.12409
249.529	607.51107
249.868	593.73018
250.206	575.69069
250.545	565.06931
250.883	562.94414
251.221	559.75581
251.56	556.56681
251.898	576.75242
252.236	620.22135
252.574	615.9857
252.912	574.62889
253.25	577.81408
253.588	604.33193
253.926	644.55518
254.264	625.51436
254.602	588.42663
254.94	597.97173
255.278	586.3047
255.615	603.27207
255.953	593.73018
256.29	588.42663
256.628	574.62889
256.965	561.88144
257.303	577.81408
257.64	625.51436
257.977	640.32577
258.314	608.57064
258.652	590.54827
258.989	579.93717
259.326	569.31875
259.663	577.81408
260	635.0375
260.337	625.51436
260.673	592.66961
261.01	595.8511
261.347	574.62889
261.684	574.62889
262.02	607.51107
262.357	613.86746
262.693	577.81408
263.03	560.81866
263.366	576.75242
263.702	566.13178
264.039	582.05997
264.375	610.68958
264.711	611.74894
265.047	620.22135
265.383	605.39171
265.719	576.75242
266.055	597.97173
266.391	626.57276
266.727	605.39171
267.063	612.80824
267.399	601.15215
267.734	571.44303
268.07	576.75242
268.405	569.31875
268.741	592.66961
269.076	584.18248
269.412	565.06931
269.747	580.99861
270.082	566.13178
270.418	579.93717
270.753	606.45143
271.088	600.09208
271.423	606.45143
271.758	596.91145
272.093	591.60898
272.428	577.81408
272.763	574.62889
273.098	604.33193
273.433	606.45143
273.767	579.93717
274.102	579.93717
274.436	583.12126
274.771	605.39171
275.106	614.92662
275.44	587.3657
275.774	604.33193
276.109	607.51107
276.443	595.8511
276.777	591.60898
277.111	618.10366
277.445	622.33876
277.78	626.57276
278.114	638.21066
278.447	612.80824
278.781	576.75242
279.115	566.13178
279.449	605.39171
279.783	622.33876
280.116	610.68958
280.45	579.93717
280.784	625.51436
281.117	657.23708
281.451	635.0375
281.784	744.70699
282.117	717.3514
282.451	607.51107
282.784	619.16254
283.117	649.84046
283.45	673.07633
283.783	649.84046
284.116	661.4623
284.449	683.62787
284.782	700.49741
285.115	761.52205
285.448	743.65557
285.781	669.90963
286.114	665.68648
286.446	705.76593
286.779	794.06133
287.111	796.15888
287.444	726.82508
287.776	734.19024
288.109	775.17386
288.441	784.61975
288.773	808.7398
289.106	917.48027
289.438	881.98598
289.77	847.48515
290.102	962.29894
290.434	962.29894
290.766	1022.63503
291.098	1075.58694
291.43	1071.43711
291.762	1083.88498
292.094	1104.6208
292.425	1154.33492
292.757	1172.95967
293.089	1228.77848
293.42	1246.33463
293.752	1242.20445
294.083	1305.14548
294.414	1369.02705
294.746	1410.19582
295.077	1417.39689
295.408	1468.80444
295.74	1641.19776
296.071	1646.32124
296.402	1601.22086
296.733	1690.3671
297.064	1705.72529
297.395	1734.38497
297.726	1801.89515
298.056	1935.71605
298.387	2028.54453
298.718	2047.91318
299.049	2174.20973
299.379	2188.45719
299.71	2193.54499
300.04	2262.70879
300.371	2303.367
300.701	2392.7459
301.031	2436.38483
301.362	2441.45763
301.692	2529.67396
302.022	2633.98905
302.352	2686.60052
302.682	2737.15471
303.012	2772.52273
303.342	2828.0675
303.672	2920.88582
304.002	3088.06137
304.332	3176.52417
304.662	3150.39914
304.992	3158.43866
305.321	3183.55616
305.651	3343.08919
305.98	3464.24539
306.31	3428.22148
306.639	3425.21862
306.969	3541.23252
307.298	3640.08845
307.628	3686.97027
307.957	3786.61357
308.286	3923.89122
308.615	4004.3467
308.944	4036.10774
309.273	4107.52192
309.602	4141.22259
309.931	4239.27093
310.26	4277.86434
310.589	4344.12572
310.918	4442.93337
311.247	4572.22058
311.575	4640.25556
311.904	4694.45789
312.233	4854.96155
312.561	4842.16726
312.89	4876.61103
313.218	5042.82942
313.546	5093.94652
313.875	5021.19953
314.203	5113.60414
314.531	5285.55605
314.859	5294.39732
315.188	5318.95569
315.516	5427.00351
315.844	5531.11736
316.172	5732.4978
316.5	5821.91901
316.827	5724.63763
317.155	5791.45421
317.483	5946.76054
317.811	5965.44296
318.138	6028.38479
318.466	6174.99855
318.794	6163.18638
319.121	6127.75461
319.449	6269.5258
319.776	6371.994
320.103	6431.14234
320.431	6555.43456
320.758	6671.93864
321.085	6703.55071
321.412	6796.45564
321.739	6747.02983
322.066	6698.61082
322.393	6763.83249
322.72	6817.22011
323.047	6932.96906
323.374	7050.80244
323.701	7087.46117
324.028	7122.14758
324.354	7306.6271
324.681	7378.1016
325.008	7364.20115
325.334	7381.08043
325.661	7441.66219
325.987	7557.92207
326.314	7705.09103
326.64	7756.82357
326.966	7894.16552
327.293	7909.09795
327.619	7822.50014
327.945	7931.99566
328.271	7868.28433
328.597	7836.43367
328.923	7932.99125
329.249	8018.62152
329.575	8031.56714
329.901	8008.6636
330.227	8058.45527
330.552	8116.21923
330.878	8169.00746
331.204	8167.0154
331.529	8176.97574
331.855	8393.11981
332.18	8485.74205
332.506	8344.31446
332.831	8428.97513
333.156	8647.03922
333.482	8665.95166
333.807	8586.31232
334.132	8674.90974
334.457	8701.78219
334.782	8718.70043
335.107	8803.27339
335.432	8854.00106
335.757	8974.2994
336.082	9051.80069
336.407	9030.9388
336.732	9044.84705
337.057	9048.8206
337.381	9074.64606
337.706	9087.55708
338.031	9039.87997
338.355	9161.02791
338.68	9340.55886
339.004	9253.30538
339.329	9216.60078
339.653	9267.1908
339.977	9259.25647
340.301	9306.85477
340.626	9386.14314
340.95	9437.65141
341.274	9519.81741
341.598	9653.32806
341.922	9709.64888
342.246	9735.32907
342.57	9772.85038
342.894	9894.20951
343.218	9912.9437
343.541	9918.85908
343.865	10077.46949
344.189	10168.989
344.512	10181.77654
344.836	10207.34769
345.159	10142.42603
345.483	10198.49672
345.806	10162.10286
346.13	10284.031
346.453	10382.28173
346.776	10265.35577
347.099	10505.99357
347.423	10555.06406
347.746	10325.30425
348.069	10431.38395
348.392	10658.08194
348.715	10546.23215
349.038	10521.6973
349.361	10642.38616
349.683	10811.0921
350.006	10825.80364
350.329	10774.80354
350.652	10917.019
350.974	10991.57273
351.297	11027.87536
351.619	11126.02255
351.942	11294.99718
352.264	11289.09828
352.587	11293.03084
352.909	11285.16589
353.231	11129.94962
353.554	11191.81542
353.876	11272.3867
354.198	11450.48409
354.52	11706.17653
354.842	11728.94374
355.164	11618.17829
355.486	11493.843
355.808	11516.51953
356.13	11582.62619
356.452	11556.96391
356.773	11563.87184
357.095	11634.97505
357.417	11596.44923
357.738	11543.15052
358.06	11760.63878
358.381	11799.29801
358.703	11676.49668
359.024	11629.04616
359.346	11638.92802
359.667	11732.9044
359.988	11750.73167
360.309	11828.06748
360.631	11842.95613
360.952	11881.69253
361.273	11851.89195
361.594	11888.64926
361.915	12251.32018
362.236	12222.19535
362.557	12151.00758
362.878	12213.16236
363.198	12233.23935
363.519	12199.1164
363.84	12207.14187
364.16	12216.17305
364.481	12185.07691
364.802	12205.1353
365.122	12314.69087
365.443	12430.7325
365.763	12245.29202
366.083	12120.97711
366.404	12034.04563
366.724	12150.0061
367.044	12324.76249
367.364	12095.97324
367.685	12029.05644
368.005	12083.97821
368.325	12017.08534
368.645	12079.98085
368.965	12161.0241
369.284	12163.02779
369.604	12123.97888
369.924	12173.04817
370.244	12431.74369
370.564	12576.73536
370.883	12437.8116
371.203	12477.28605
371.522	12623.54498
371.842	12921.63201
372.161	12858.86365
372.481	12744.00744
372.8	12871.19971
373.119	12776.77178
373.439	12908.24263
373.758	12810.60335
374.077	12606.23604
374.396	12663.29714
374.715	12541.17503
375.034	12396.37424
375.353	12148.00325
375.672	11698.2601
375.991	11112.27861
376.31	10669.85335
376.629	10477.52753
376.948	10644.34817
377.266	11071.05367
377.585	11363.84641
377.904	11839.97796
378.222	12271.42296
378.541	12694.93837
378.859	13156.4964
379.178	13356.60539
379.496	13250.14435
379.814	12882.51286
380.133	12707.19694
380.451	12760.38444
380.769	12557.42525
381.087	12394.3545
381.405	12324.76249
381.723	12361.04987
382.041	12489.44363
382.359	12528.99391
382.677	12541.17503
382.995	12744.00744
383.313	12909.27234
383.631	12748.10072
383.949	12730.70874
384.266	12954.61921
384.584	13015.54557
384.901	12852.6978
385.219	12956.68227
385.537	13102.52119
385.854	12896.91844
386.171	12922.66224
386.489	13080.75206
386.806	12991.77834
387.123	13040.36812
387.441	12925.75318
387.758	12946.36859
388.075	12931.93613
388.392	12654.11819
388.709	12490.45701
389.026	12552.34598
389.343	12621.50804
389.66	12709.2406
389.977	12816.75927
390.294	12846.5334
390.61	12964.93606
390.927	13013.47804
391.244	12812.65516
391.56	12744.00744
391.877	12867.08705
392.193	12843.45174
392.51	12995.91029
392.826	12891.77269
393.143	12681.66478
393.459	12811.62923
393.775	12912.36172
394.092	12930.90554
394.408	12947.39978
394.724	13014.51178
395.04	13247.01824
395.356	13268.90732
395.672	13462.32489
395.988	13703.89348
396.304	13680.75355
396.62	13629.23291
396.936	13807.00374
397.252	13981.56643
397.567	14100.09008
397.883	14183.72003
398.199	13886.96059
398.514	13819.63034
398.83	13967.90961
399.146	13837.51726
399.461	13698.63404
399.777	13683.90874
400.092	13609.2639
400.407	13609.2639
400.723	13430.89454
401.038	12999.00966
401.353	13026.9198
401.668	13061.07056
401.983	12850.64284
402.298	12875.31302
402.613	12838.31645
402.928	12744.00744
403.243	12599.11215
403.558	12629.65676
403.873	12736.84575
404.188	12611.32572
404.503	12604.20045
404.817	12676.56136
405.132	12717.41684
405.447	12861.94712
405.761	12814.70713
406.076	12546.25216
406.39	12733.77706
406.705	13043.47251
407.019	13048.64725
407.334	13010.37702
407.648	12929.87499
407.962	12801.37219
408.276	12808.5517
408.591	12824.96943
408.905	12841.3975
409.219	12988.6798
409.533	12910.3021
409.847	12869.1433
410.161	13080.75206
410.475	13301.24622
410.789	13231.39226
411.102	13036.22948
411.416	12976.28916
411.73	13198.08267
412.044	13358.69608
412.357	13119.1183
412.671	12997.97649
412.984	13019.68111
413.298	12945.33744
413.611	12862.97503
413.925	12847.56069
414.238	12804.44888
414.552	12796.24519
414.865	12755.26552
415.178	12705.15345
415.491	12639.84623
415.804	12564.53786
416.118	12587.92138
416.431	12345.92447
416.744	12303.61617
417.057	12422.64434
417.37	12430.7325
417.683	12323.75517
417.995	12181.06681
418.308	12195.10446
418.621	12195.10446
418.934	12036.04151
419.246	12091.97441
419.559	12507.69034
419.872	12843.45174
420.184	12957.71385
420.497	12841.3975
420.809	12862.97503
421.121	12789.06908
421.434	12638.82711
421.746	12806.50021
422.058	12746.054
422.371	12493.49738
422.683	12315.69787
422.995	12041.03172
423.307	12033.04773
423.619	12158.01881
423.931	12109.97302
424.243	11971.23419
424.555	11881.69253
424.867	11900.57801
425.179	11740.82676
425.491	11718.05368
425.802	11763.61135
426.114	11637.93975
426.426	11515.53342
426.737	11464.27703
427.049	11558.93752
427.361	11563.87184
427.672	11555.97713
427.984	11457.38021
428.295	11415.02911
428.606	11432.75438
428.918	11370.73443
429.229	11372.70254
429.54	11294.99718
429.851	11058.29549
430.163	10899.36354
430.474	10872.88131
430.785	10954.2939
431.096	11173.15445
431.407	11259.60917
431.718	11084.79423
432.029	10794.41903
432.339	10715.95509
432.65	10910.15291
432.961	11056.33276
433.272	11022.96928
433.582	10995.49709
433.893	10891.51684
434.204	10852.28462
434.514	10862.09252
434.825	10870.9197
435.135	10862.09252
435.446	10976.85686
435.756	11141.73144
436.066	11116.20533
436.377	11255.67794
436.687	11297.94677
436.997	11109.33364
437.307	11098.53586
437.617	11192.79765
437.927	11032.78154
438.237	10962.14171
438.547	11180.02923
438.857	11260.592
439.167	11379.59132
439.477	11348.10457
439.787	11380.57548
440.097	11439.64873
440.407	11232.09367
440.716	11089.70183
441.026	11053.38871
441.336	11064.18377
441.645	10991.57273
441.955	10866.0157
442.264	10947.42721
442.574	11057.31412
442.883	10817.95748
443.192	10783.63053
443.502	10914.07638
443.811	10857.18856
444.12	10813.05364
444.429	10646.31017
444.739	10478.50918
445.048	10574.6894
445.357	10490.28867
445.666	10469.67411
445.975	10525.62306
446.284	10352.81327
446.593	10384.2461
446.901	10425.49244
447.21	10561.93311
447.519	10487.34386
447.828	10427.4563
448.136	10382.28173
448.445	10397.99601
448.754	10499.12282
449.062	10390.13906
449.371	10389.15692
449.679	10624.72758
449.988	10880.72779
450.296	11139.76773
450.605	11521.45031
450.913	11807.23244
451.221	12275.44516
451.529	12510.73266
451.838	12261.36985
452.146	11853.87795
452.454	11710.13525
452.762	11836.00742
453.07	11501.72956
453.378	11247.81594
453.686	11368.76636
453.994	11436.69392
454.302	11146.64081
454.609	10585.4827
454.917	10524.64163
455.225	10639.44313
455.533	10456.91161
455.84	10396.03181
456.148	10383.26392
456.455	10151.281
456.763	10151.281
457.07	10467.7107
457.378	10589.40743
457.685	10430.40205
457.993	10361.65439
458.3	10508.93811
458.607	10671.81522
458.915	10800.30365
459.222	11007.27052
459.529	10982.74312
459.836	10873.86212
460.143	10704.18483
460.45	10437.27527
460.757	10355.76037
461.064	10418.61875
461.371	10467.7107
461.678	10549.17616
461.985	10663.96769
462.292	10899.36354
462.598	11282.2167
462.905	11567.8196
463.212	11706.17653
463.518	11904.55508
463.825	12195.10446
464.131	12679.62329
464.438	12857.83591
464.744	12451.97531
465.051	12137.99088
465.357	12164.02968
465.664	12217.17669
465.97	11819.13689
466.276	11588.54992
466.582	11463.29173
466.889	11257.64354
467.195	11624.10594
467.501	12257.34957
467.807	13068.32004
468.113	13780.69781
468.419	14345.76719
468.725	14813.32218
469.031	15111.92782
469.337	15301.17361
469.642	15084.48766
469.948	14685.85678
470.254	14576.75984
470.56	14112.65207
470.865	13421.46995
471.171	13064.17725
471.477	12646.98123
471.782	12198.11337
472.088	11945.34438
472.393	11968.24596
472.698	11606.32498
473.004	11260.592
473.309	11506.65916
473.614	11827.0751
473.92	12273.43399
474.225	12376.18341
474.53	12207.14187
474.835	12230.22695
475.14	11987.17565
475.445	11681.44205
475.75	11319.57998
476.055	10924.86607
476.36	10685.54806
476.665	10323.33913
476.97	10059.74779
477.275	10122.74599
477.58	10164.07037
477.885	10157.18395
478.189	9949.41672
478.494	9817.26622
478.799	9791.60602
479.103	9838.97382
479.408	9829.10728
479.712	9809.37144
480.017	10018.38643
480.321	10220.13134
480.625	10435.31152
480.93	10573.70817
481.234	10979.79998
481.538	11532.29943
481.843	11791.36508
482.147	11972.23032
482.451	12230.22695
482.755	12492.48389
483.059	12556.40932
483.363	12515.80398
483.667	12740.9379
483.971	12776.77178
484.275	12518.84723
484.579	12720.4836
484.883	12978.35387
485.187	12843.45174
485.49	12686.76921
485.794	12553.36176
486.098	12489.44363
486.401	12390.31545
486.705	12221.19155
487.009	12047.02095
487.312	12007.1126
487.616	12031.05203
487.919	11848.91312
488.222	11766.58411
488.526	11823.10581
488.829	11887.65536
489.132	11918.47814
489.436	11769.55708
489.739	11804.25685
490.042	11946.3398
490.345	11827.0751
490.648	11782.44229
490.951	11831.04478
491.254	11945.34438
491.557	12038.03751
491.86	12202.1257
492.163	12659.21721
492.466	12829.07548
492.769	13150.26343
493.072	13528.39831
493.375	13608.21304
493.677	13781.75005
493.98	13749.13162
494.283	13569.34287
494.585	13360.78689
494.888	13068.32004
495.19	12801.37219
495.493	12682.68558
495.795	12343.90837
496.098	12087.97607
496.4	12100.97246
496.702	11964.26203
497.005	11997.14271
497.307	12073.98571
497.609	11896.60135
497.911	11818.14473
498.213	11823.10581
498.515	11631.02238
498.818	11489.90009
499.12	11587.56259
499.422	11692.32365
499.723	11675.50767
500.025	11719.04358
500.327	11720.0335
500.629	11783.43362
500.931	11889.64318
501.233	11821.1213
501.534	11689.35569
501.836	11637.93975
502.138	11760.63878
502.439	11759.64797
502.741	11724.98342
503.042	11773.52135
503.344	11744.78847
503.645	11924.44673
503.947	11870.76303
504.248	11796.32299
504.55	11878.71145
504.851	11968.24596
505.152	12049.0176
505.453	11850.89898
505.755	11852.88494
506.056	11847.92023
506.357	11712.11473
506.658	11630.03426
506.959	11733.89462
507.26	11751.72228
507.561	11618.17829
507.862	11701.22861
508.163	11823.10581
508.464	11733.89462
508.764	11622.12998
509.065	11643.86966
509.366	11673.5297
509.667	11639.91631
509.967	11544.13709
510.268	11457.38021
510.569	11567.8196
510.869	11538.21796
511.17	11297.94677
511.47	11329.41498
511.771	11493.843
512.071	11547.09687
512.371	11282.2167
512.672	11154.49617
512.972	11289.09828
513.272	11301.8797
513.573	11206.54975
513.873	11239.95452
514.173	11244.86784
514.473	11127.98607
514.773	11059.27686
515.073	11143.69517
515.373	11246.83323
515.673	11168.24413
515.973	11076.94236
516.273	11041.61294
516.573	10908.19119
516.873	10726.7443
517.172	10828.74596
517.472	10866.0157
517.772	10822.86133
518.072	10843.45758
518.371	10817.95748
518.671	10817.95748
518.97	10693.3952
519.27	10621.78439
