Data from sample_5_A_12Oclock_ST026791__117__22926.txt Node

Date: Tue Aug 19 16:33:33 AEST 2025
User: mathewyoussef
Spectrometer: ST02679
Trigger mode: 0
Integration Time (sec): 6.653700E-1
Scans to average: 1
Nonlinearity correction enabled: true
Boxcar width: 0
Storing dark spectrum: false
XAxis mode: Wavelengths
Number of Pixels in Spectrum: 1516
>>>>>Begin Spectral Data<<<<<
187.304	590.54827
187.653	622.33876
188.002	640.32577
188.351	605.39171
188.7	621.28009
189.048	649.84046
189.397	661.4623
189.746	623.39736
190.094	629.74755
190.443	658.29348
190.791	621.28009
191.14	631.86373
191.488	609.63015
191.837	586.3047
192.185	604.33193
192.533	601.15215
192.881	607.51107
193.229	592.66961
193.577	613.86746
193.925	615.9857
194.273	586.3047
194.621	621.28009
194.969	641.38322
195.317	630.80567
195.664	619.16254
196.012	621.28009
196.359	618.10366
196.707	602.21215
197.054	578.87566
197.402	586.3047
197.749	607.51107
198.096	604.33193
198.443	601.15215
198.791	589.48748
199.138	597.97173
199.485	626.57276
199.832	607.51107
200.179	593.73018
200.525	603.27207
200.872	602.21215
201.219	612.80824
201.566	601.15215
201.912	603.27207
202.259	597.97173
202.605	577.81408
202.952	592.66961
203.298	592.66961
203.644	602.21215
203.991	611.74894
204.337	602.21215
204.683	619.16254
205.029	636.09528
205.375	589.48748
205.721	600.09208
206.067	642.44061
206.413	630.80567
206.759	607.51107
207.104	604.33193
207.45	609.63015
207.796	631.86373
208.141	656.18062
208.487	608.57064
208.832	593.73018
209.177	607.51107
209.523	605.39171
209.868	609.63015
210.213	602.21215
210.558	573.56701
210.903	590.54827
211.248	633.97964
211.593	596.91145
211.938	589.48748
212.283	663.57452
212.628	661.4623
212.973	613.86746
213.317	601.15215
213.662	589.48748
214.007	613.86746
214.351	625.51436
214.696	615.9857
215.04	614.92662
215.384	623.39736
215.729	609.63015
216.073	595.8511
216.417	643.49793
216.761	639.26825
217.105	618.10366
217.449	609.63015
217.793	597.97173
218.137	602.21215
218.481	600.09208
218.824	630.80567
219.168	624.4559
219.512	604.33193
219.855	602.21215
220.199	587.3657
220.542	590.54827
220.886	623.39736
221.229	630.80567
221.572	613.86746
221.916	601.15215
222.259	589.48748
222.602	586.3047
222.945	573.56701
223.288	560.81866
223.631	568.25651
223.974	587.3657
224.317	582.05997
224.659	597.97173
225.002	623.39736
225.345	602.21215
225.687	614.92662
226.03	640.32577
226.372	618.10366
226.715	594.79068
227.057	574.62889
227.4	602.21215
227.742	620.22135
228.084	592.66961
228.426	589.48748
228.768	580.99861
229.11	593.73018
229.452	615.9857
229.794	596.91145
230.136	589.48748
230.478	607.51107
230.82	587.3657
231.161	582.05997
231.503	649.84046
231.845	664.63053
232.186	700.49741
232.528	689.9558
232.869	605.39171
233.21	609.63015
233.552	600.09208
233.893	588.42663
234.234	587.3657
234.575	613.86746
234.916	625.51436
235.257	596.91145
235.598	624.4559
235.939	617.04472
236.28	583.12126
236.621	583.12126
236.961	603.27207
237.302	612.80824
237.643	593.73018
237.983	577.81408
238.324	587.3657
238.664	624.4559
239.005	623.39736
239.345	604.33193
239.685	601.15215
240.025	596.91145
240.366	605.39171
240.706	619.16254
241.046	607.51107
241.386	604.33193
241.726	592.66961
242.066	587.3657
242.405	594.79068
242.745	607.51107
243.085	620.22135
243.425	593.73018
243.764	611.74894
244.104	675.18714
244.443	666.74236
244.783	609.63015
245.122	588.42663
245.461	577.81408
245.801	617.04472
246.14	621.28009
246.479	565.06931
246.818	549.12314
247.157	595.8511
247.496	635.0375
247.835	624.4559
248.174	621.28009
248.513	613.86746
248.852	684.68268
249.19	675.18714
249.529	574.62889
249.868	590.54827
250.206	601.15215
250.545	542.73986
250.883	565.06931
251.221	611.74894
251.56	587.3657
251.898	571.44303
252.236	609.63015
252.574	612.80824
252.912	591.60898
253.25	596.91145
253.588	582.05997
253.926	614.92662
254.264	614.92662
254.602	587.3657
254.94	583.12126
255.278	583.12126
255.615	597.97173
255.953	612.80824
256.29	635.0375
256.628	590.54827
256.965	564.00676
257.303	583.12126
257.64	611.74894
257.977	636.09528
258.314	619.16254
258.652	610.68958
258.989	613.86746
259.326	601.15215
259.663	619.16254
260	628.68935
260.337	600.09208
260.673	578.87566
261.01	607.51107
261.347	599.03194
261.684	573.56701
262.02	577.81408
262.357	582.05997
262.693	566.13178
263.03	556.56681
263.366	603.27207
263.702	585.24363
264.039	580.99861
264.375	606.45143
264.711	592.66961
265.047	554.44043
265.383	571.44303
265.719	613.86746
266.055	639.26825
266.391	658.29348
266.727	636.09528
267.063	613.86746
267.399	601.15215
267.734	623.39736
268.07	625.51436
268.405	603.27207
268.741	626.57276
269.076	611.74894
269.412	574.62889
269.747	601.15215
270.082	578.87566
270.418	568.25651
270.753	590.54827
271.088	579.93717
271.423	568.25651
271.758	572.50506
272.093	604.33193
272.428	644.55518
272.763	625.51436
273.098	592.66961
273.433	642.44061
273.767	633.97964
274.102	604.33193
274.436	594.79068
274.771	584.18248
275.106	595.8511
275.44	620.22135
275.774	624.4559
276.109	579.93717
276.443	582.05997
276.777	583.12126
277.111	586.3047
277.445	611.74894
277.78	594.79068
278.114	579.93717
278.447	607.51107
278.781	610.68958
279.115	573.56701
279.449	583.12126
279.783	615.9857
280.116	592.66961
280.45	583.12126
280.784	619.16254
281.117	639.26825
281.451	624.4559
281.784	673.07633
282.117	673.07633
282.451	607.51107
282.784	584.18248
283.117	596.91145
283.45	600.09208
283.783	577.81408
284.116	608.57064
284.449	643.49793
284.782	650.89731
285.115	649.84046
285.448	631.86373
285.781	611.74894
286.114	613.86746
286.446	626.57276
286.779	669.90963
287.111	667.79818
287.444	600.09208
287.776	576.75242
288.109	612.80824
288.441	612.80824
288.773	612.80824
289.106	668.85394
289.438	646.66949
289.77	590.54827
290.102	590.54827
290.434	604.33193
290.766	673.07633
291.098	673.07633
291.43	626.57276
291.762	640.32577
292.094	649.84046
292.425	654.06749
292.757	637.15301
293.089	651.95411
293.42	648.78353
293.752	628.68935
294.083	643.49793
294.414	642.44061
294.746	619.16254
295.077	617.04472
295.408	675.18714
295.74	700.49741
296.071	650.89731
296.402	636.09528
296.733	663.57452
297.064	646.66949
297.395	638.21066
297.726	670.96526
298.056	714.19244
298.387	715.24549
298.718	745.75836
299.049	765.72359
299.379	689.9558
299.71	649.84046
300.04	669.90963
300.371	707.87292
300.701	719.45707
301.031	725.77269
301.362	769.92426
301.692	796.15888
302.022	744.70699
302.352	721.56251
302.682	725.77269
303.012	696.2815
303.342	757.31963
303.672	761.52205
304.002	766.77384
304.332	780.42211
304.662	787.76742
304.992	798.25622
305.321	759.42095
305.651	783.57042
305.98	810.8359
306.31	818.17065
306.639	805.59527
306.969	796.15888
307.298	777.27332
307.628	809.78788
307.957	837.02012
308.286	843.29972
308.615	872.58171
308.944	918.52345
309.273	910.1768
309.602	883.03066
309.931	940.42038
310.26	921.65273
310.589	891.38654
310.918	914.35047
311.247	1004.96361
311.575	995.60376
311.904	946.67325
312.233	1037.18001
312.561	996.6439
312.89	947.71525
313.218	1038.21866
313.546	1090.1071
313.875	1019.51732
314.203	931.03827
314.531	964.38168
314.859	1019.51732
315.188	1050.67977
315.516	1076.62431
315.844	1084.92208
316.172	1153.29993
316.5	1139.84232
316.827	1093.21772
317.155	1166.75248
317.483	1178.13153
317.811	1088.03319
318.138	1050.67977
318.466	1100.47468
318.794	1120.16418
319.121	1158.47458
319.449	1222.58036
319.776	1142.94837
320.103	1121.20015
320.431	1256.65824
320.758	1265.9473
321.085	1198.81183
321.412	1245.30212
321.739	1251.49676
322.066	1218.44774
322.393	1191.57501
322.72	1238.07386
323.047	1338.12759
323.374	1359.75932
323.701	1322.6702
324.028	1306.17654
324.354	1293.80228
324.681	1232.91003
325.008	1327.82324
325.334	1323.70086
325.661	1263.88324
325.987	1361.81897
326.314	1381.38127
326.64	1363.87853
326.966	1378.29301
327.293	1372.1159
327.619	1382.41065
327.945	1424.59696
328.271	1433.85273
328.597	1437.96588
328.923	1407.10933
329.249	1350.48979
329.575	1406.08046
329.901	1455.44323
330.227	1414.31084
330.552	1437.96588
330.878	1444.13501
331.204	1428.71084
331.529	1386.52794
331.855	1442.07871
332.18	1545.82656
332.506	1481.13499
332.831	1409.16701
333.156	1529.40376
333.482	1576.60729
333.807	1489.35383
334.132	1527.35059
334.457	1533.50988
334.782	1507.84187
335.107	1480.10755
335.432	1461.61035
335.757	1519.13719
336.082	1507.84187
336.407	1468.80444
336.732	1480.10755
337.057	1539.66854
337.381	1533.50988
337.706	1530.43031
338.031	1554.03627
338.355	1526.32397
338.68	1583.78724
339.004	1588.91528
339.329	1616.59951
339.653	1591.9919
339.977	1537.61572
340.301	1589.94083
340.626	1596.09383
340.95	1610.44849
341.274	1573.52991
341.598	1586.86411
341.922	1694.46295
342.246	1713.91495
342.57	1677.05391
342.894	1660.66489
343.218	1681.15055
343.541	1731.31484
343.865	1660.66489
344.189	1598.14469
344.512	1700.60627
344.836	1772.2392
345.159	1730.29143
345.483	1727.22113
345.806	1748.7105
346.13	1791.67029
346.453	1789.62515
346.776	1749.73365
347.099	1809.05173
347.423	1790.64772
347.746	1751.77989
348.069	1817.22985
348.392	1830.51742
348.715	1795.7604
349.038	1817.22985
349.361	1799.85029
349.683	1850.95536
350.006	1881.60222
350.329	1849.93359
350.652	1911.21621
350.974	1894.87882
351.297	1834.60544
351.619	1899.98461
351.942	1935.71605
352.264	1866.28029
352.587	1860.15068
352.909	1877.51666
353.231	1838.69325
353.554	1889.7727
353.876	1927.55027
354.198	1990.81371
354.52	2027.52501
354.842	1977.55284
355.164	2006.11206
355.486	2032.62251
355.808	1988.77371
356.13	1976.53269
356.452	2075.42934
356.773	2067.27734
357.095	1965.31015
357.417	1977.55284
357.738	1979.59312
358.06	2046.89389
358.381	2058.1054
358.703	1969.39125
359.024	2044.85527
359.346	2033.64198
359.667	2003.05261
359.988	1989.79372
360.309	1983.67351
360.631	2062.18194
360.952	2080.52393
361.273	2013.25032
361.594	2018.3487
361.915	2085.61822
362.236	2072.37243
362.557	2136.54421
362.878	2160.9778
363.198	2076.44828
363.519	2063.20104
363.84	2123.3064
364.16	2122.28802
364.481	2112.10356
364.802	2124.32477
365.122	2207.78921
365.443	2279.99092
365.763	2214.91042
366.083	2146.72573
366.404	2065.23922
366.724	2073.39141
367.044	2219.99663
367.364	2224.06538
367.685	2150.79799
368.005	2117.19594
368.325	2122.28802
368.645	2215.92769
368.965	2207.78921
369.284	2178.28068
369.604	2196.59752
369.924	2209.8239
370.244	2272.87518
370.564	2246.44003
370.883	2137.56241
371.203	2197.61501
371.522	2259.65863
371.842	2310.48017
372.161	2336.89526
372.481	2255.59159
372.8	2223.04821
373.119	2281.00741
373.439	2339.94262
373.758	2387.67012
374.077	2384.6245
374.396	2310.48017
374.715	2225.08254
375.034	2121.26963
375.353	2152.83405
375.672	2098.86193
375.991	1929.59179
376.31	1895.9
376.629	1865.25872
376.948	1916.32096
377.266	2072.37243
377.585	2130.43471
377.904	2146.72573
378.222	2205.75447
378.541	2251.52435
378.859	2340.95839
379.178	2397.82138
379.496	2314.54457
379.814	2283.04034
380.133	2358.22446
380.451	2354.16218
380.769	2282.02388
381.087	2188.45719
381.405	2143.6714
381.723	2180.31608
382.041	2272.87518
382.359	2302.35078
382.677	2292.18794
382.995	2350.09969
383.313	2278.97442
383.631	2284.05679
383.949	2353.14657
384.266	2330.80021
384.584	2340.95839
384.901	2413.04594
385.219	2432.32637
385.537	2404.92652
385.854	2362.28655
386.171	2293.20428
386.489	2365.33298
386.806	2406.95645
387.123	2357.20891
387.441	2398.83644
387.758	2489.1266
388.075	2403.91154
388.392	2341.97414
388.709	2390.71563
389.026	2334.86363
389.343	2293.20428
389.66	2397.82138
389.977	2503.32048
390.294	2407.9714
390.61	2419.13499
390.927	2556.01882
391.244	2556.01882
391.56	2492.16836
391.877	2446.53012
392.193	2422.17934
392.51	2445.51565
392.826	2427.25301
393.143	2388.6853
393.459	2432.32637
393.775	2439.42855
394.092	2430.29706
394.408	2428.26771
394.724	2398.83644
395.04	2404.92652
395.356	2473.91612
395.672	2591.46935
395.988	2645.12137
396.304	2623.8674
396.62	2583.36776
396.936	2622.85516
397.252	2669.40454
397.567	2632.97695
397.883	2657.2639
398.199	2651.19287
398.514	2552.97947
398.83	2533.72758
399.146	2578.30385
399.461	2631.96483
399.777	2656.25209
400.092	2635.00115
400.407	2527.64708
400.723	2468.84533
401.038	2511.43016
401.353	2587.41866
401.668	2596.53242
401.983	2524.60665
402.298	2585.39324
402.613	2537.78099
402.928	2457.68848
403.243	2437.39942
403.558	2428.26771
403.873	2473.91612
404.188	2454.64544
404.503	2490.14053
404.817	2510.4165
405.132	2499.26534
405.447	2420.14978
405.761	2481.0147
406.076	2578.30385
406.39	2539.80762
406.705	2537.78099
407.019	2568.17506
407.334	2516.4983
407.648	2464.78847
407.962	2455.6598
408.276	2516.4983
408.591	2563.11019
408.905	2491.15445
409.219	2568.17506
409.533	2615.76913
409.847	2638.03735
410.161	2622.85516
410.475	2585.39324
410.789	2617.79378
411.102	2631.96483
411.416	2702.78149
411.73	2752.31445
412.044	2710.87069
412.357	2650.18098
412.671	2591.46935
412.984	2563.11019
413.298	2603.62017
413.611	2637.02529
413.925	2673.451
414.238	2674.46258
414.552	2641.07343
414.865	2514.47108
415.178	2463.77422
415.491	2486.08473
415.804	2566.14915
416.118	2590.45669
416.431	2483.04275
416.744	2487.0987
417.057	2507.37542
417.37	2494.19613
417.683	2440.4431
417.995	2502.30672
418.308	2540.82092
418.621	2501.29294
418.934	2468.84533
419.246	2509.40282
419.559	2584.3805
419.872	2552.97947
420.184	2538.79431
420.497	2540.82092
420.809	2645.12137
421.121	2621.84291
421.434	2504.33424
421.746	2557.03191
422.058	2641.07343
422.371	2619.81837
422.683	2502.30672
422.995	2530.68738
423.307	2537.78099
423.619	2495.21
423.931	2417.10536
424.243	2374.47163
424.555	2425.22358
424.867	2473.91612
425.179	2558.04499
425.491	2489.1266
425.802	2438.41399
426.114	2447.54458
426.426	2401.88154
426.737	2374.47163
427.049	2405.9415
427.361	2506.36171
427.672	2478.98659
427.984	2381.57877
428.295	2452.61669
428.606	2476.95844
428.918	2440.4431
429.229	2572.22673
429.54	2560.0711
429.851	2415.07567
430.163	2363.30204
430.474	2318.60878
430.785	2376.5023
431.096	2421.16457
431.407	2425.22358
431.718	2472.90199
432.029	2483.04275
432.339	2424.20885
432.65	2454.64544
432.961	2458.7028
433.272	2397.82138
433.582	2437.39942
433.893	2393.76102
434.204	2369.39473
434.514	2393.76102
434.825	2324.70471
435.135	2362.28655
435.446	2496.22385
435.756	2546.90042
436.066	2552.97947
436.377	2569.188
436.687	2543.86073
436.997	2443.48666
437.307	2494.19613
437.617	2489.1266
437.927	2388.6853
438.237	2468.84533
438.547	2543.86073
438.857	2443.48666
439.167	2490.14053
439.477	2610.70729
439.787	2535.75431
440.097	2498.25152
440.407	2504.33424
440.716	2429.28239
441.026	2445.51565
441.336	2571.21383
441.645	2534.74095
441.955	2373.45627
442.264	2426.2383
442.574	2596.53242
442.883	2611.71969
443.192	2565.13617
443.502	2608.68247
443.811	2581.34224
444.12	2505.34798
444.429	2506.36171
444.739	2474.93024
445.048	2538.79431
445.357	2588.43135
445.666	2526.63361
445.975	2504.33424
446.284	2450.58788
446.593	2438.41399
446.901	2466.81692
447.21	2485.07075
447.519	2420.14978
447.828	2426.2383
448.136	2487.0987
448.445	2516.4983
448.754	2528.66052
449.062	2491.15445
449.371	2558.04499
449.679	2576.2782
449.988	2564.12319
450.296	2657.2639
450.605	2753.32499
450.913	2928.95141
451.221	3160.44839
451.529	3189.583
451.838	3059.89064
452.146	2948.10361
452.454	2943.06405
452.762	3008.55079
453.07	2870.45562
453.378	2730.07914
453.686	2826.04841
453.994	2951.12717
454.302	2883.57081
454.609	2723.0029
454.917	2668.39289
455.225	2660.29924
455.533	2592.48199
455.84	2586.40595
456.148	2586.40595
456.455	2510.4165
456.763	2594.50723
457.07	2798.78539
457.378	2816.96184
457.685	2658.27569
457.993	2618.80608
458.3	2670.41617
458.607	2700.75905
458.915	2798.78539
459.222	2875.5002
459.529	2851.28305
459.836	2888.61449
460.143	2823.01968
460.45	2728.05742
460.757	2735.13319
461.064	2695.70273
461.371	2728.05742
461.678	2813.93274
461.985	2801.8151
462.292	2828.0675
462.598	2939.03215
462.905	2996.46543
463.212	3124.26427
463.518	3188.57856
463.825	3148.38911
464.131	3358.12028
464.438	3513.24728
464.744	3354.11232
465.051	3223.72517
465.357	3250.82602
465.664	3187.57411
465.97	3063.91572
466.276	3090.07314
466.582	3122.25349
466.889	3032.71535
467.195	3116.2208
467.501	3284.93779
467.807	3459.24321
468.113	3664.03209
468.419	3843.34712
468.725	3967.60626
469.031	4042.06145
469.337	4157.07679
469.642	4138.24957
469.948	4050.99115
470.254	3985.48225
470.56	3831.40698
470.865	3571.20396
471.171	3452.23954
471.477	3543.23102
471.782	3420.21357
472.088	3267.88403
472.393	3455.2412
472.698	3395.18278
473.004	3171.50089
473.309	3284.93779
473.614	3399.18832
473.92	3414.20702
474.225	3406.19746
474.53	3422.21564
474.835	3471.24782
475.14	3430.22331
475.445	3364.13179
475.75	3284.93779
476.055	3163.46289
476.36	3126.27499
476.665	3042.78149
476.97	2967.25072
477.275	3032.71535
477.58	3051.83979
477.885	3036.74198
478.189	2984.37803
478.494	2909.79416
478.799	2873.48241
479.103	2871.46456
479.408	2898.70082
479.712	2919.87755
480.017	3002.50837
480.321	3048.82049
480.625	2995.45823
480.93	3009.55781
481.234	3201.63511
481.538	3370.14276
481.843	3430.22331
482.147	3584.1875
482.451	3632.10539
482.755	3691.95582
483.059	3717.87493
483.363	3681.98436
483.667	3750.75836
483.971	3806.52525
484.275	3841.35723
484.579	3849.31644
484.883	3875.17775
485.187	3852.30091
485.49	3829.41676
485.794	3855.28526
486.098	3800.55234
486.401	3751.75458
486.705	3679.98989
487.009	3553.22267
487.312	3612.14367
487.616	3708.90403
487.919	3663.0346
488.222	3598.16701
488.526	3621.12717
488.829	3755.73935
489.132	3766.69627
489.436	3624.1214
489.739	3618.1328
490.042	3634.10125
490.345	3636.09704
490.648	3670.01669
490.951	3647.07287
491.254	3701.92586
491.557	3737.80613
491.86	3714.88476
492.163	3874.18326
492.466	4020.22889
492.769	4105.53907
493.072	4204.62076
493.375	4301.60551
493.677	4348.08006
493.98	4309.51779
494.283	4336.21652
494.585	4259.06461
494.888	4203.63054
495.19	4138.24957
495.493	4035.11541
495.795	3975.55168
496.098	3908.9824
496.4	3939.7906
496.702	3979.52407
497.005	4019.23635
497.307	3999.38283
497.609	3836.38228
497.911	3827.42649
498.213	3824.44097
498.515	3784.6221
498.818	3865.23219
499.12	3878.16115
499.422	3897.05315
499.723	3871.19969
500.025	3898.04733
500.327	3905.0062
500.629	3860.2589
500.931	3938.79699
501.233	3979.52407
501.534	3881.14442
501.836	3868.216
502.138	4003.35396
502.439	4053.96749
502.741	3976.54479
503.042	4008.31756
503.344	4020.22889
503.645	4085.7079
503.947	4019.23635
504.248	3936.80973
504.55	3999.38283
504.851	4055.95164
505.152	4136.2675
505.453	4067.85552
505.755	4110.49608
506.056	4102.56472
506.357	4093.64098
506.658	4192.73736
506.959	4180.85224
507.26	4169.95603
507.561	4144.19549
507.862	4097.60721
508.163	4059.91981
508.464	4085.7079
508.764	4140.23159
509.065	4068.84743
509.366	4130.321
509.667	4216.50244
509.967	4166.98408
510.268	4138.24957
510.569	4172.92787
510.869	4068.84743
511.17	3961.64665
511.47	4024.19891
511.771	4079.75757
512.071	4154.10436
512.371	4074.79861
512.672	4035.11541
512.972	4082.73279
513.272	4098.59874
513.573	4128.33873
513.873	4172.92787
514.173	4151.13183
514.473	4093.64098
514.773	4144.19549
515.073	4182.83322
515.373	4128.33873
515.673	4014.27346
515.973	4029.16115
516.273	4114.46146
516.573	4127.34758
516.873	4077.77402
517.172	4044.04592
517.472	4132.30322
517.772	4188.77585
518.072	4191.747
518.371	4194.71805
518.671	4139.24059
518.97	4089.67454
519.27	4127.34758
519.569	4148.15919
519.869	4075.79042
520.168	4100.58175
520.468	4130.321
520.767	4089.67454
521.066	4045.03813
521.366	4059.91981
521.665	4092.64939
521.964	4033.13071
522.263	4036.10774
522.562	4101.57324
522.861	4078.7658
523.161	4009.31025
523.46	4013.28084
523.759	4039.08465
524.057	4097.60721
524.356	4063.88777
524.655	3969.5927
524.954	4007.32487
525.253	4093.64098
525.552	4178.87122
525.85	4120.40916
526.149	4065.87167
526.448	4044.04592
526.746	3946.7455
527.045	3927.86639
527.344	4073.80678
527.642	4216.50244
527.941	4211.55195
528.239	4041.0692
528.537	3982.50322
528.836	4107.52192
