Data from sample_5_A_12Oclock_ST026791__140__22949.txt Node

Date: Tue Aug 19 16:34:04 AEST 2025
User: mathewyoussef
Spectrometer: ST02679
Trigger mode: 0
Integration Time (sec): 6.653700E-1
Scans to average: 1
Nonlinearity correction enabled: true
Boxcar width: 0
Storing dark spectrum: false
XAxis mode: Wavelengths
Number of Pixels in Spectrum: 1516
>>>>>Begin Spectral Data<<<<<
187.304	603.27207
187.653	632.92172
188.002	631.86373
188.351	625.51436
188.7	589.48748
189.048	561.88144
189.397	617.04472
189.746	628.68935
190.094	642.44061
190.443	630.80567
190.791	585.24363
191.14	603.27207
191.488	641.38322
191.837	631.86373
192.185	569.31875
192.533	593.73018
192.881	632.92172
193.229	599.03194
193.577	632.92172
193.925	646.66949
194.273	620.22135
194.621	622.33876
194.969	611.74894
195.317	605.39171
195.664	599.03194
196.012	578.87566
196.359	573.56701
196.707	592.66961
197.054	594.79068
197.402	596.91145
197.749	585.24363
198.096	605.39171
198.443	613.86746
198.791	606.45143
199.138	615.9857
199.485	610.68958
199.832	612.80824
200.179	589.48748
200.525	573.56701
200.872	623.39736
201.219	635.0375
201.566	618.10366
201.912	635.0375
202.259	622.33876
202.605	596.91145
202.952	615.9857
203.298	608.57064
203.644	610.68958
203.991	611.74894
204.337	576.75242
204.683	535.28916
205.029	543.80393
205.375	594.79068
205.721	663.57452
206.067	679.40801
206.413	622.33876
206.759	620.22135
207.104	607.51107
207.45	599.03194
207.796	608.57064
208.141	635.0375
208.487	651.95411
208.832	622.33876
209.177	600.09208
209.523	589.48748
209.868	584.18248
210.213	595.8511
210.558	602.21215
210.903	632.92172
211.248	610.68958
211.593	562.94414
211.938	605.39171
212.283	653.01083
212.628	617.04472
212.973	585.24363
213.317	619.16254
213.662	596.91145
214.007	577.81408
214.351	601.15215
214.696	618.10366
215.04	635.0375
215.384	631.86373
215.729	631.86373
216.073	621.28009
216.417	597.97173
216.761	592.66961
217.105	578.87566
217.449	562.94414
217.793	591.60898
218.137	601.15215
218.481	592.66961
218.824	621.28009
219.168	595.8511
219.512	567.19418
219.855	593.73018
220.199	584.18248
220.542	575.69069
220.886	610.68958
221.229	602.21215
221.572	558.69289
221.916	559.75581
222.259	595.8511
222.602	574.62889
222.945	575.69069
223.288	604.33193
223.631	605.39171
223.974	606.45143
224.317	601.15215
224.659	617.04472
225.002	612.80824
225.345	601.15215
225.687	602.21215
226.03	638.21066
226.372	632.92172
226.715	606.45143
227.057	595.8511
227.4	567.19418
227.742	579.93717
228.084	587.3657
228.426	584.18248
228.768	588.42663
229.11	602.21215
229.452	620.22135
229.794	606.45143
230.136	580.99861
230.478	602.21215
230.82	637.15301
231.161	619.16254
231.503	665.68648
231.845	695.22737
232.186	689.9558
232.528	669.90963
232.869	608.57064
233.21	603.27207
233.552	601.15215
233.893	587.3657
234.234	588.42663
234.575	606.45143
234.916	632.92172
235.257	614.92662
235.598	618.10366
235.939	636.09528
236.28	592.66961
236.621	591.60898
236.961	666.74236
237.302	670.96526
237.643	597.97173
237.983	593.73018
238.324	620.22135
238.664	659.34982
239.005	654.06749
239.345	597.97173
239.685	602.21215
240.025	627.63109
240.366	623.39736
240.706	609.63015
241.046	614.92662
241.386	603.27207
241.726	565.06931
242.066	564.00676
242.405	558.69289
242.745	586.3047
243.085	613.86746
243.425	597.97173
243.764	636.09528
244.104	714.19244
244.443	673.07633
244.783	621.28009
245.122	608.57064
245.461	576.75242
245.801	599.03194
246.14	611.74894
246.479	597.97173
246.818	568.25651
247.157	623.39736
247.496	643.49793
247.835	573.56701
248.174	567.19418
248.513	594.79068
248.852	655.12409
249.19	647.72654
249.529	614.92662
249.868	620.22135
250.206	610.68958
250.545	626.57276
250.883	614.92662
251.221	604.33193
251.56	590.54827
251.898	590.54827
252.236	612.80824
252.574	605.39171
252.912	591.60898
253.25	590.54827
253.588	610.68958
253.926	626.57276
254.264	603.27207
254.602	593.73018
254.94	586.3047
255.278	590.54827
255.615	591.60898
255.953	574.62889
256.29	602.21215
256.628	625.51436
256.965	608.57064
257.303	587.3657
257.64	604.33193
257.977	600.09208
258.314	589.48748
258.652	588.42663
258.989	604.33193
259.326	617.04472
259.663	601.15215
260	595.8511
260.337	569.31875
260.673	552.31374
261.01	573.56701
261.347	578.87566
261.684	571.44303
262.02	601.15215
262.357	619.16254
262.693	617.04472
263.03	625.51436
263.366	597.97173
263.702	567.19418
264.039	572.50506
264.375	592.66961
264.711	605.39171
265.047	589.48748
265.383	582.05997
265.719	606.45143
266.055	626.57276
266.391	668.85394
266.727	676.24245
267.063	618.10366
267.399	591.60898
267.734	618.10366
268.07	605.39171
268.405	586.3047
268.741	632.92172
269.076	630.80567
269.412	589.48748
269.747	596.91145
270.082	625.51436
270.418	620.22135
270.753	592.66961
271.088	595.8511
271.423	619.16254
271.758	615.9857
272.093	621.28009
272.428	626.57276
272.763	605.39171
273.098	606.45143
273.433	620.22135
273.767	628.68935
274.102	595.8511
274.436	587.3657
274.771	617.04472
275.106	607.51107
275.44	626.57276
275.774	638.21066
276.109	604.33193
276.443	601.15215
276.777	607.51107
277.111	631.86373
277.445	620.22135
277.78	614.92662
278.114	629.74755
278.447	613.86746
278.781	595.8511
279.115	565.06931
279.449	584.18248
279.783	615.9857
280.116	605.39171
280.45	582.05997
280.784	623.39736
281.117	639.26825
281.451	607.51107
281.784	682.573
282.117	697.33557
282.451	632.92172
282.784	610.68958
283.117	610.68958
283.45	619.16254
283.783	591.60898
284.116	580.99861
284.449	604.33193
284.782	636.09528
285.115	666.74236
285.448	648.78353
285.781	640.32577
286.114	640.32577
286.446	635.0375
286.779	651.95411
287.111	629.74755
287.444	632.92172
287.776	635.0375
288.109	611.74894
288.441	601.15215
288.773	609.63015
289.106	677.2977
289.438	683.62787
289.77	640.32577
290.102	649.84046
290.434	607.51107
290.766	626.57276
291.098	648.78353
291.43	630.80567
291.762	660.40609
292.094	639.26825
292.425	633.97964
292.757	651.95411
293.089	622.33876
293.42	618.10366
293.752	660.40609
294.083	655.12409
294.414	642.44061
294.746	625.51436
295.077	628.68935
295.408	677.2977
295.74	717.3514
296.071	697.33557
296.402	645.61237
296.733	657.23708
297.064	666.74236
297.395	670.96526
297.726	665.68648
298.056	706.81946
298.387	729.98193
298.718	733.13825
299.049	748.9121
299.379	675.18714
299.71	653.01083
300.04	691.01024
300.371	705.76593
300.701	693.11893
301.031	739.44933
301.362	786.71825
301.692	740.50098
302.022	715.24549
302.352	733.13825
302.682	738.39763
303.012	718.40427
303.342	739.44933
303.672	766.77384
304.002	785.66903
304.332	760.47153
304.662	759.42095
304.992	785.66903
305.321	765.72359
305.651	777.27332
305.98	823.40823
306.31	820.26583
306.639	808.7398
306.969	833.87966
307.298	827.5974
307.628	857.94536
307.957	877.80676
308.286	845.39253
308.615	858.99112
308.944	926.86735
309.273	875.71688
309.602	800.35335
309.931	885.11991
310.26	949.79912
310.589	971.67
310.918	939.37809
311.247	968.54667
311.575	932.0809
311.904	928.95289
312.233	1039.25729
312.561	962.29894
312.89	970.62893
313.218	1113.94769
313.546	1121.20015
313.875	979.99713
314.203	933.12348
314.531	995.60376
314.859	1026.79146
315.188	1049.64154
315.516	1062.09802
315.844	1097.36475
316.172	1166.75248
316.5	1142.94837
316.827	1114.98385
317.155	1137.77146
317.483	1110.83901
317.811	1092.18088
318.138	1096.32804
318.466	1151.22986
318.794	1190.54107
319.121	1195.7105
319.449	1216.38127
319.776	1142.94837
320.103	1139.84232
320.431	1236.00841
320.758	1253.56143
321.085	1182.2685
321.412	1188.4731
321.739	1241.17184
322.066	1213.28136
322.393	1203.98014
322.72	1240.13921
323.047	1236.00841
323.374	1286.58235
323.701	1294.8336
324.028	1262.85117
324.354	1312.36237
324.681	1293.80228
325.008	1310.30052
325.334	1294.8336
325.661	1302.05217
325.987	1382.41065
326.314	1390.6449
326.64	1354.6098
326.966	1331.94526
327.293	1338.12759
327.619	1352.54984
327.945	1414.31084
328.271	1418.42553
328.597	1387.55721
328.923	1390.6449
329.249	1376.23406
329.575	1404.02266
329.901	1376.23406
330.227	1385.49865
330.552	1459.55472
330.878	1459.55472
331.204	1465.72137
331.529	1433.85273
331.855	1484.2172
332.18	1555.06241
332.506	1424.59696
332.831	1363.87853
333.156	1517.08366
333.482	1565.32282
333.807	1504.76095
334.132	1486.27191
334.457	1482.16241
334.782	1510.92263
335.107	1522.21735
335.432	1488.32654
335.757	1450.30342
336.082	1486.27191
336.407	1562.24488
336.732	1566.34876
337.057	1578.65879
337.381	1575.58151
337.706	1533.50988
338.031	1481.13499
338.355	1536.58929
338.68	1623.77495
339.004	1565.32282
339.329	1639.14826
339.653	1624.79995
339.977	1518.11043
340.301	1606.34749
340.626	1647.34589
340.95	1606.34749
341.274	1615.57438
341.598	1660.66489
341.922	1660.66489
342.246	1645.29658
342.57	1645.29658
342.894	1640.17302
343.218	1675.0055
343.541	1720.05657
343.865	1672.95703
344.189	1681.15055
344.512	1764.05616
344.836	1747.68734
345.159	1737.45496
345.483	1724.15069
345.806	1672.95703
346.13	1754.84915
346.453	1753.82608
346.776	1743.59457
347.099	1839.71517
347.423	1790.64772
347.746	1766.102
348.069	1855.0423
348.392	1865.25872
348.715	1805.98471
349.038	1809.05173
349.361	1811.09634
349.683	1842.78084
350.006	1870.36643
350.329	1829.49538
350.652	1852.99886
350.974	1855.0423
351.297	1816.20763
351.619	1870.36643
351.942	1980.61323
352.264	1965.31015
352.587	1894.87882
352.909	1914.2791
353.231	1902.02684
353.554	1851.97712
353.876	1859.12903
354.198	1999.99306
354.52	2034.66143
354.842	1939.79864
355.164	2022.42718
355.486	2032.62251
355.808	1936.73672
356.13	1962.24919
356.452	2034.66143
356.773	2079.50504
357.095	2013.25032
357.417	2039.7585
357.738	2002.03277
358.06	2028.54453
358.381	2035.68087
358.703	1947.96319
359.024	2020.38797
359.346	1996.93339
359.667	1978.57299
359.988	1937.75737
360.309	1943.88102
360.631	2011.21088
360.952	2040.77788
361.273	2050.97097
361.594	2096.82457
361.915	2144.68952
362.236	2130.43471
362.557	2103.95511
362.878	2080.52393
363.198	2058.1054
363.519	2027.52501
363.84	2082.56168
364.16	2111.08505
364.481	2140.61696
364.802	2196.59752
365.122	2285.07323
365.443	2278.97442
365.763	2164.03151
366.083	2098.86193
366.404	2057.08623
366.724	2122.28802
367.044	2207.78921
367.364	2146.72573
367.685	2065.23922
368.005	2033.64198
368.325	2054.02866
368.645	2091.73096
368.965	2069.31541
369.284	2121.26963
369.604	2205.75447
369.924	2249.49066
370.244	2310.48017
370.564	2226.09969
370.883	2131.45299
371.203	2228.13394
371.522	2275.92485
371.842	2399.85148
372.161	2348.06838
372.481	2227.11682
372.8	2319.6248
373.119	2336.89526
373.439	2329.78432
373.758	2284.05679
374.077	2287.10606
374.396	2320.6408
374.715	2217.96218
375.034	2204.73708
375.353	2244.40622
375.672	2095.80587
375.991	1940.81925
376.31	1906.11113
376.629	1930.61253
376.948	1915.30003
377.266	1972.45194
377.585	2086.63704
377.904	2201.68484
378.222	2272.87518
378.541	2260.67537
378.859	2325.72066
379.178	2363.30204
379.496	2322.67278
379.814	2345.02131
380.133	2384.6245
380.451	2305.39939
380.769	2170.13859
381.087	2199.64995
381.405	2234.23641
381.723	2249.49066
382.041	2262.70879
382.359	2273.89175
382.677	2274.90831
382.995	2301.33455
383.313	2332.83194
383.631	2334.86363
383.949	2363.30204
384.266	2311.49629
384.584	2375.48697
384.901	2445.51565
385.219	2400.86652
385.537	2352.13096
385.854	2362.28655
386.171	2348.06838
386.489	2400.86652
386.806	2434.35563
387.123	2462.75996
387.441	2492.16836
387.758	2481.0147
388.075	2388.6853
388.392	2295.23692
388.709	2320.6408
389.026	2352.13096
389.343	2431.31172
389.66	2422.17934
389.977	2431.31172
390.294	2426.2383
390.61	2459.71711
390.927	2595.51983
391.244	2524.60665
391.56	2391.73077
391.877	2371.42552
392.193	2363.30204
392.51	2444.50116
392.826	2495.21
393.143	2441.45763
393.459	2417.10536
393.775	2420.14978
394.092	2347.0527
394.408	2346.03701
394.724	2443.48666
395.04	2454.64544
395.356	2485.07075
395.672	2607.67003
395.988	2664.34617
396.304	2668.39289
396.62	2587.41866
396.936	2586.40595
397.252	2671.42779
397.567	2629.94055
397.883	2665.35787
398.199	2633.98905
398.514	2528.66052
398.83	2594.50723
399.146	2676.4857
399.461	2669.40454
399.777	2580.32945
400.092	2584.3805
400.407	2622.85516
400.723	2532.71419
401.038	2436.38483
401.353	2517.51189
401.668	2592.48199
401.983	2545.8872
402.298	2473.91612
402.613	2440.4431
402.928	2491.15445
403.243	2413.04594
403.558	2382.59402
403.873	2443.48666
404.188	2433.34101
404.503	2490.14053
404.817	2517.51189
405.132	2447.54458
405.447	2451.60229
405.761	2559.05805
406.076	2596.53242
406.39	2529.67396
406.705	2508.38913
407.019	2531.70079
407.334	2567.16211
407.648	2568.17506
407.962	2523.59315
408.276	2575.26535
408.591	2527.64708
408.905	2475.94435
409.219	2610.70729
409.533	2687.61193
409.847	2655.24027
410.161	2502.30672
410.475	2537.78099
410.789	2696.71402
411.102	2669.40454
411.416	2674.46258
411.73	2725.02475
412.044	2644.1094
412.357	2595.51983
412.671	2571.21383
412.984	2504.33424
413.298	2504.33424
413.611	2588.43135
413.925	2594.50723
414.238	2635.00115
414.552	2645.12137
414.865	2549.94
415.178	2590.45669
415.491	2591.46935
415.804	2576.2782
416.118	2496.22385
416.431	2437.39942
416.744	2540.82092
417.057	2543.86073
417.37	2456.67415
417.683	2437.39942
417.995	2505.34798
418.308	2543.86073
418.621	2506.36171
418.934	2427.25301
419.246	2482.02873
419.559	2583.36776
419.872	2559.05805
420.184	2606.65759
420.497	2655.24027
420.809	2659.28747
421.121	2610.70729
421.434	2589.44403
421.746	2664.34617
422.058	2672.4394
422.371	2575.26535
422.683	2491.15445
422.995	2481.0147
423.307	2481.0147
423.619	2509.40282
423.931	2487.0987
424.243	2449.57346
424.555	2473.91612
424.867	2552.97947
425.179	2593.49461
425.491	2524.60665
425.802	2446.53012
426.114	2453.63107
426.426	2512.44381
426.737	2487.0987
427.049	2450.58788
427.361	2522.57964
427.672	2547.91363
427.984	2474.93024
428.295	2504.33424
428.606	2450.58788
428.918	2423.1941
429.229	2593.49461
429.54	2540.82092
429.851	2386.65492
430.163	2342.98987
430.474	2355.17776
430.785	2455.6598
431.096	2416.09052
431.407	2391.73077
431.718	2420.14978
432.029	2378.53292
432.339	2404.92652
432.65	2491.15445
432.961	2433.34101
433.272	2324.70471
433.582	2374.47163
433.893	2418.12018
434.204	2411.01616
434.514	2481.0147
434.825	2431.31172
435.135	2370.41013
435.446	2461.74569
435.756	2533.72758
436.066	2555.00571
436.377	2572.22673
436.687	2526.63361
436.997	2437.39942
437.307	2502.30672
437.617	2515.48469
437.927	2453.63107
438.237	2506.36171
438.547	2522.57964
438.857	2533.72758
439.167	2575.26535
439.477	2508.38913
439.787	2517.51189
440.097	2559.05805
440.407	2514.47108
440.716	2471.88784
441.026	2474.93024
441.336	2580.32945
441.645	2612.73207
441.955	2484.05675
442.264	2449.57346
442.574	2602.60768
442.883	2615.76913
443.192	2578.30385
443.502	2613.74443
443.811	2586.40595
444.12	2557.03191
444.429	2459.71711
444.739	2386.65492
445.048	2482.02873
445.357	2528.66052
445.666	2513.45745
445.975	2553.9926
446.284	2484.05675
446.593	2366.34844
446.901	2360.25553
447.21	2456.67415
447.519	2442.47215
447.828	2447.54458
448.136	2504.33424
448.445	2539.80762
448.754	2497.23769
449.062	2463.77422
449.371	2536.76766
449.679	2620.83064
449.988	2611.71969
450.296	2626.90403
450.605	2752.31445
450.913	2904.75194
451.221	3110.18759
451.529	3095.10229
451.838	2966.24311
452.146	2925.92692
452.454	2916.85268
452.762	3014.5927
453.07	2952.135
453.378	2785.6552
453.686	2765.45044
453.994	2880.54444
454.302	2866.4197
454.609	2730.07914
454.917	2677.49724
455.225	2674.46258
455.533	2628.92839
455.84	2594.50723
456.148	2573.23962
456.455	2569.188
456.763	2684.57767
457.07	2789.6955
457.378	2821.00045
457.685	2658.27569
457.993	2574.25249
458.3	2678.50877
458.607	2750.29333
458.915	2824.02927
459.222	2877.51794
459.529	2855.31979
459.836	2886.59706
460.143	2836.1433
460.45	2711.88178
460.757	2727.04655
461.064	2712.89286
461.371	2779.59434
461.678	2853.30145
461.985	2813.93274
462.292	2878.52678
462.598	2986.39274
462.905	3008.55079
463.212	3064.92196
463.518	3205.65201
463.825	3233.76377
464.131	3369.14097
464.438	3467.24652
464.744	3345.09353
465.051	3246.81176
465.357	3322.0401
465.664	3318.03001
465.97	3128.28566
466.276	3141.35356
466.582	3110.18759
466.889	2991.42926
467.195	3109.18201
467.501	3234.76755
467.807	3428.22148
468.113	3669.0193
468.419	3790.59636
468.725	3908.9824
469.031	4107.52192
469.337	4259.06461
469.642	4123.38284
469.948	3929.85389
470.254	3962.63995
470.56	3842.35218
470.865	3637.09492
471.171	3650.06598
471.477	3575.19916
471.782	3389.17401
472.088	3261.86404
472.393	3399.18832
472.698	3397.18558
473.004	3161.45324
473.309	3209.66868
473.614	3343.08919
473.92	3417.21036
474.225	3398.18696
474.53	3428.22148
474.835	3425.21862
475.14	3403.19363
475.445	3394.18135
475.75	3285.94082
476.055	3263.87076
476.36	3169.49148
476.665	2959.1894
476.97	2919.87755
477.275	3023.6546
477.58	3080.01374
477.885	3012.57879
478.189	2832.10551
478.494	2802.82498
478.799	2866.4197
479.103	2874.49131
479.408	2885.58833
479.712	2964.22783
480.017	3021.64095
480.321	3021.64095
480.625	3008.55079
480.93	3038.75521
481.234	3219.70933
481.538	3393.17991
481.843	3476.24912
482.147	3573.20159
482.451	3597.16857
482.755	3693.94995
483.059	3738.80254
483.363	3760.71998
483.667	3830.41188
483.971	3828.42163
484.275	3786.61357
484.579	3853.29571
484.883	3961.64665
485.187	3884.12758
485.49	3849.31644
485.794	3820.46009
486.098	3773.66797
486.401	3792.58767
486.705	3779.64316
487.009	3710.89766
487.312	3681.98436
487.616	3751.75458
487.919	3682.98157
488.222	3580.19283
488.526	3641.08627
488.829	3748.76586
489.132	3730.83086
489.436	3560.21596
489.739	3617.13465
490.042	3759.72388
490.345	3708.90403
490.648	3687.96741
490.951	3682.98157
491.254	3732.82386
491.557	3864.23756
491.86	3860.2589
492.163	3906.00027
492.466	3956.67993
492.769	4103.55618
493.072	4286.76804
493.375	4267.97026
493.677	4367.84917
493.98	4397.49484
494.283	4344.12572
494.585	4350.05717
494.888	4240.26072
495.19	4145.18643
495.493	4084.71621
495.795	3969.5927
496.098	3957.6733
496.4	4032.13834
496.702	3971.57908
497.005	3952.70632
497.307	4059.91981
497.609	3954.69315
497.911	3834.3922
498.213	3883.13321
498.515	3856.28001
498.818	3890.09351
499.12	3899.04149
499.422	3863.24292
499.723	3801.54786
500.025	3852.30091
500.327	3926.87261
500.629	3907.98837
500.931	3964.62652
501.233	3980.51713
501.534	3910.97042
501.836	3843.34712
502.138	3948.73249
502.439	4045.03813
502.741	4037.10005
503.042	4073.80678
503.344	4018.2438
503.645	4118.42665
503.947	4082.73279
504.248	4014.27346
504.55	4120.40916
504.851	4146.17736
505.152	4180.85224
505.453	4084.71621
505.755	4084.71621
506.056	4057.93575
506.357	4071.82308
506.658	4152.12269
506.959	4073.80678
507.26	4104.54764
507.561	4135.27645
507.862	4093.64098
508.163	4077.77402
508.464	4075.79042
508.764	4118.42665
509.065	4027.17629
509.366	4110.49608
509.667	4194.71805
509.967	4061.90381
510.268	4095.62412
510.569	4131.31211
510.869	4122.39163
511.17	4122.39163
511.47	4115.45278
511.771	4081.74106
512.071	4162.03059
512.371	4214.52228
512.672	4122.39163
512.972	4094.63255
513.272	4071.82308
513.573	3997.39719
513.873	4042.06145
514.173	4111.48745
514.473	4034.12306
514.773	4104.54764
515.073	4252.13735
515.373	4269.94916
515.673	4156.08599
515.973	4053.96749
516.273	4122.39163
516.573	4177.88069
516.873	4086.69958
517.172	4075.79042
517.472	4045.03813
517.772	4080.74932
518.072	4142.21357
518.371	4187.78544
518.671	4182.83322
518.97	4089.67454
519.27	4086.69958
519.569	4163.02131
519.869	4163.02131
520.168	4100.58175
520.468	4076.78223
520.767	4012.28821
521.066	4023.20642
521.366	4103.55618
521.665	4125.36523
521.964	4076.78223
522.263	4099.59025
522.562	4187.78544
522.861	4120.40916
523.161	4055.95164
523.46	4050.99115
523.759	4063.88777
524.057	4144.19549
524.356	4137.25855
524.655	4067.85552
524.954	4025.19138
525.253	4082.73279
525.552	4172.92787
525.85	4129.32987
526.149	4077.77402
526.448	4068.84743
526.746	3948.73249
527.045	3930.84762
527.344	4074.79861
527.642	4169.95603
527.941	4207.59134
528.239	4176.89015
528.537	4073.80678
528.836	4040.07693
