Data from sample_5_A_12Oclock_ST026791__139__22948.txt Node

Date: Tue Aug 19 16:34:02 AEST 2025
User: mathewyoussef
Spectrometer: ST02679
Trigger mode: 0
Integration Time (sec): 6.653700E-1
Scans to average: 1
Nonlinearity correction enabled: true
Boxcar width: 0
Storing dark spectrum: false
XAxis mode: Wavelengths
Number of Pixels in Spectrum: 1516
>>>>>Begin Spectral Data<<<<<
187.304	589.48748
187.653	633.97964
188.002	642.44061
188.351	580.99861
188.7	568.25651
189.048	585.24363
189.397	631.86373
189.746	658.29348
190.094	626.57276
190.443	591.60898
190.791	590.54827
191.14	622.33876
191.488	607.51107
191.837	601.15215
192.185	606.45143
192.533	590.54827
192.881	592.66961
193.229	603.27207
193.577	628.68935
193.925	617.04472
194.273	574.62889
194.621	612.80824
194.969	645.61237
195.317	631.86373
195.664	635.0375
196.012	605.39171
196.359	588.42663
196.707	606.45143
197.054	600.09208
197.402	576.75242
197.749	590.54827
198.096	621.28009
198.443	593.73018
198.791	587.3657
199.138	593.73018
199.485	614.92662
199.832	601.15215
200.179	584.18248
200.525	606.45143
200.872	584.18248
201.219	572.50506
201.566	583.12126
201.912	590.54827
202.259	604.33193
202.605	620.22135
202.952	624.4559
203.298	637.15301
203.644	597.97173
203.991	584.18248
204.337	579.93717
204.683	570.38093
205.029	600.09208
205.375	622.33876
205.721	657.23708
206.067	649.84046
206.413	617.04472
206.759	595.8511
207.104	576.75242
207.45	573.56701
207.796	619.16254
208.141	620.22135
208.487	615.9857
208.832	636.09528
209.177	607.51107
209.523	614.92662
209.868	632.92172
210.213	603.27207
210.558	580.99861
210.903	588.42663
211.248	588.42663
211.593	595.8511
211.938	610.68958
212.283	665.68648
212.628	650.89731
212.973	565.06931
213.317	567.19418
213.662	585.24363
214.007	570.38093
214.351	602.21215
214.696	613.86746
215.04	599.03194
215.384	586.3047
215.729	565.06931
216.073	593.73018
216.417	617.04472
216.761	600.09208
217.105	607.51107
217.449	636.09528
217.793	647.72654
218.137	627.63109
218.481	617.04472
218.824	627.63109
219.168	608.57064
219.512	614.92662
219.855	623.39736
220.199	597.97173
220.542	607.51107
220.886	643.49793
221.229	644.55518
221.572	622.33876
221.916	590.54827
222.259	574.62889
222.602	596.91145
222.945	589.48748
223.288	571.44303
223.631	585.24363
223.974	611.74894
224.317	595.8511
224.659	588.42663
225.002	593.73018
225.345	576.75242
225.687	600.09208
226.03	639.26825
226.372	608.57064
226.715	584.18248
227.057	585.24363
227.4	590.54827
227.742	622.33876
228.084	608.57064
228.426	618.10366
228.768	640.32577
229.11	629.74755
229.452	602.21215
229.794	607.51107
230.136	574.62889
230.478	545.93185
230.82	583.12126
231.161	560.81866
231.503	597.97173
231.845	635.0375
232.186	668.85394
232.528	668.85394
232.869	594.79068
233.21	590.54827
233.552	594.79068
233.893	612.80824
234.234	615.9857
234.575	599.03194
234.916	603.27207
235.257	593.73018
235.598	594.79068
235.939	617.04472
236.28	606.45143
236.621	604.33193
236.961	631.86373
237.302	631.86373
237.643	610.68958
237.983	602.21215
238.324	635.0375
238.664	656.18062
239.005	610.68958
239.345	591.60898
239.685	623.39736
240.025	612.80824
240.366	584.18248
240.706	600.09208
241.046	588.42663
241.386	585.24363
241.726	609.63015
242.066	584.18248
242.405	585.24363
242.745	618.10366
243.085	614.92662
243.425	607.51107
243.764	638.21066
244.104	702.605
244.443	698.38958
244.783	624.4559
245.122	589.48748
245.461	577.81408
245.801	597.97173
246.14	608.57064
246.479	602.21215
246.818	587.3657
247.157	609.63015
247.496	631.86373
247.835	578.87566
248.174	579.93717
248.513	607.51107
248.852	653.01083
249.19	664.63053
249.529	620.22135
249.868	595.8511
250.206	595.8511
250.545	602.21215
250.883	615.9857
251.221	613.86746
251.56	583.12126
251.898	583.12126
252.236	580.99861
252.574	575.69069
252.912	586.3047
253.25	594.79068
253.588	560.81866
253.926	586.3047
254.264	620.22135
254.602	597.97173
254.94	600.09208
255.278	588.42663
255.615	549.12314
255.953	549.12314
256.29	573.56701
256.628	595.8511
256.965	614.92662
257.303	584.18248
257.64	601.15215
257.977	623.39736
258.314	605.39171
258.652	590.54827
258.989	589.48748
259.326	576.75242
259.663	571.44303
260	603.27207
260.337	582.05997
260.673	587.3657
261.01	600.09208
261.347	585.24363
261.684	572.50506
262.02	602.21215
262.357	629.74755
262.693	613.86746
263.03	597.97173
263.366	595.8511
263.702	576.75242
264.039	555.50366
264.375	580.99861
264.711	607.51107
265.047	589.48748
265.383	585.24363
265.719	621.28009
266.055	638.21066
266.391	645.61237
266.727	611.74894
267.063	572.50506
267.399	573.56701
267.734	591.60898
268.07	584.18248
268.405	593.73018
268.741	633.97964
269.076	608.57064
269.412	595.8511
269.747	593.73018
270.082	562.94414
270.418	585.24363
270.753	614.92662
271.088	591.60898
271.423	577.81408
271.758	575.69069
272.093	587.3657
272.428	590.54827
272.763	588.42663
273.098	618.10366
273.433	635.0375
273.767	610.68958
274.102	591.60898
274.436	589.48748
274.771	594.79068
275.106	606.45143
275.44	641.38322
275.774	653.01083
276.109	583.12126
276.443	593.73018
276.777	603.27207
277.111	602.21215
277.445	617.04472
277.78	599.03194
278.114	603.27207
278.447	620.22135
278.781	623.39736
279.115	605.39171
279.449	601.15215
279.783	615.9857
280.116	606.45143
280.45	570.38093
280.784	607.51107
281.117	666.74236
281.451	636.09528
281.784	693.11893
282.117	729.98193
282.451	623.39736
282.784	562.94414
283.117	572.50506
283.45	620.22135
283.783	600.09208
284.116	599.03194
284.449	628.68935
284.782	632.92172
285.115	644.55518
285.448	613.86746
285.781	605.39171
286.114	603.27207
286.446	592.66961
286.779	655.12409
287.111	645.61237
287.444	584.18248
287.776	589.48748
288.109	604.33193
288.441	568.25651
288.773	552.31374
289.106	622.33876
289.438	622.33876
289.77	597.97173
290.102	602.21215
290.434	601.15215
290.766	668.85394
291.098	667.79818
291.43	644.55518
291.762	648.78353
292.094	593.73018
292.425	585.24363
292.757	594.79068
293.089	620.22135
293.42	610.68958
293.752	587.3657
294.083	621.28009
294.414	647.72654
294.746	656.18062
295.077	647.72654
295.408	666.74236
295.74	722.61514
296.071	679.40801
296.402	619.16254
296.733	642.44061
297.064	648.78353
297.395	649.84046
297.726	635.0375
298.056	668.85394
298.387	723.66772
298.718	741.55257
299.049	753.11631
299.379	692.06461
299.71	705.76593
300.04	735.24217
300.371	680.46307
300.701	638.21066
301.031	724.72023
301.362	753.11631
301.692	723.66772
302.022	751.01432
302.352	738.39763
302.682	721.56251
303.012	707.87292
303.342	759.42095
303.672	781.4716
304.002	811.88388
304.332	789.8656
304.662	749.96324
304.992	765.72359
305.321	741.55257
305.651	767.82403
305.98	794.06133
306.31	764.67329
306.639	800.35335
306.969	831.78577
307.298	810.8359
307.628	815.02749
307.957	846.43887
308.286	851.66981
308.615	824.4556
308.944	872.58171
309.273	871.53656
309.602	854.8078
309.931	948.7572
310.26	945.63121
310.589	888.25343
310.918	888.25343
311.247	965.42299
311.575	966.46425
311.904	919.56659
312.233	947.71525
312.561	890.34222
312.89	892.43082
313.218	1072.47462
313.546	1123.272
313.875	1000.80406
314.203	973.75202
314.531	998.72405
314.859	996.6439
315.188	985.20031
315.516	987.28131
315.844	1010.1622
316.172	1108.7664
316.5	1170.89072
316.827	1136.73598
317.155	1147.08936
317.483	1146.05416
317.811	1098.40143
318.138	1048.60327
318.466	1102.54781
318.794	1118.09214
319.121	1112.9115
319.449	1165.71785
319.776	1137.77146
320.103	1150.19478
320.431	1224.64651
320.758	1231.87718
321.085	1187.43907
321.412	1195.7105
321.739	1148.12453
322.066	1150.19478
322.393	1166.75248
322.72	1182.2685
323.047	1227.74553
323.374	1280.39288
323.701	1284.51929
324.028	1289.67675
324.354	1299.98984
324.681	1286.58235
325.008	1355.63975
325.334	1313.39326
325.661	1252.5291
325.987	1372.1159
326.314	1427.6824
326.64	1354.6098
326.966	1360.78915
327.293	1361.81897
327.619	1385.49865
327.945	1419.45415
328.271	1421.51134
328.597	1405.05157
328.923	1401.96477
329.249	1367.99739
329.575	1363.87853
329.901	1383.44
330.227	1391.67408
330.552	1462.63813
330.878	1430.76765
331.204	1408.13818
331.529	1409.16701
331.855	1485.24456
332.18	1573.52991
332.506	1440.02233
332.831	1358.72946
333.156	1514.00323
333.482	1535.56284
333.807	1478.05261
334.132	1505.78794
334.457	1471.88734
334.782	1474.97006
335.107	1477.02511
335.432	1441.05053
335.757	1419.45415
336.082	1426.65394
336.407	1464.69365
336.732	1474.97006
337.057	1535.56284
337.381	1535.56284
337.706	1475.99759
338.031	1502.70691
338.355	1531.45685
338.68	1577.63304
339.004	1567.37469
339.329	1591.9919
339.653	1612.49889
339.977	1591.9919
340.301	1599.1701
340.626	1581.73591
340.95	1590.96637
341.274	1623.77495
341.598	1659.64045
341.922	1682.17467
342.246	1650.41974
342.57	1611.4737
342.894	1609.42326
343.218	1670.90849
343.541	1723.12719
343.865	1648.37052
344.189	1666.81124
344.512	1764.05616
344.836	1742.57134
345.159	1638.12348
345.483	1671.93277
345.806	1716.98583
346.13	1750.75678
346.453	1824.38498
346.776	1778.37588
347.099	1763.03321
347.423	1789.62515
347.746	1749.73365
348.069	1793.71537
348.392	1833.58346
348.715	1764.05616
349.038	1703.67773
349.361	1665.78689
349.683	1797.80537
350.006	1869.34491
350.329	1810.07404
350.652	1861.17231
350.974	1859.12903
351.297	1823.36286
351.619	1866.28029
351.942	1954.08607
352.264	1931.63326
352.587	1839.71517
352.909	1867.30184
353.231	1854.02059
353.554	1855.0423
353.876	1902.02684
354.198	2001.01292
354.52	1993.8736
354.842	1897.94233
355.164	2001.01292
355.486	2078.48613
355.808	1967.35072
356.13	1937.75737
356.452	2085.61822
356.773	2075.42934
357.095	1960.20848
357.417	1960.20848
357.738	1985.71363
358.06	2035.68087
358.381	2001.01292
358.703	1988.77371
359.024	2053.00944
359.346	2023.44677
359.667	1998.97318
359.988	1995.91347
360.309	1993.8736
360.631	2012.23061
360.952	2059.12455
361.273	2065.23922
361.594	2064.22014
361.915	2095.80587
362.236	2083.58054
362.557	2101.91788
362.878	2094.78716
363.198	2071.35344
363.519	2087.65585
363.84	2115.15903
364.16	2112.10356
364.481	2097.84326
364.802	2076.44828
365.122	2108.02943
365.443	2177.26296
365.763	2203.71967
366.083	2146.72573
366.404	2041.79725
366.724	2083.58054
367.044	2233.21936
367.364	2153.85206
367.685	2078.48613
368.005	2095.80587
368.325	2123.3064
368.645	2154.87006
368.965	2083.58054
369.284	2056.06705
369.604	2081.54281
369.924	2143.6714
370.244	2267.79214
370.564	2241.3554
370.883	2167.0851
371.203	2271.85859
371.522	2255.59159
371.842	2276.94139
372.161	2295.23692
372.481	2237.28748
372.8	2250.50751
373.119	2338.92685
373.439	2381.57877
373.758	2243.38929
374.077	2138.58061
374.396	2208.80656
374.715	2255.59159
375.034	2215.92769
375.353	2171.15639
375.672	2133.48951
375.991	2033.64198
376.31	1901.00573
376.629	1817.22985
376.948	1873.43089
377.266	1987.7537
377.585	2049.95172
377.904	2259.65863
378.222	2278.97442
378.541	2247.45692
378.859	2318.60878
379.178	2314.54457
379.496	2335.87945
379.814	2277.95791
380.133	2262.70879
380.451	2268.80877
380.769	2200.6674
381.087	2173.19196
381.405	2171.15639
381.723	2247.45692
382.041	2299.30206
382.359	2311.49629
382.677	2276.94139
382.995	2296.25323
383.313	2386.65492
383.631	2318.60878
383.949	2251.52435
384.266	2256.60837
384.584	2307.43174
384.901	2329.78432
385.219	2303.367
385.537	2332.83194
385.854	2337.91106
386.171	2306.41557
386.489	2386.65492
386.806	2471.88784
387.123	2460.73141
387.441	2387.67012
387.758	2426.2383
388.075	2378.53292
388.392	2273.89175
388.709	2269.82539
389.026	2257.62514
389.343	2323.68876
389.66	2429.28239
389.977	2451.60229
390.294	2380.5635
390.61	2384.6245
390.927	2498.25152
391.244	2488.11266
391.56	2467.83113
391.877	2424.20885
392.193	2303.367
392.51	2364.31752
392.826	2417.10536
393.143	2413.04594
393.459	2387.67012
393.775	2403.91154
394.092	2461.74569
394.408	2395.79123
394.724	2411.01616
395.04	2445.51565
395.356	2447.54458
395.672	2582.355
395.988	2642.08544
396.304	2539.80762
396.62	2542.84747
396.936	2753.32499
397.252	2740.1869
397.567	2657.2639
397.883	2658.27569
398.199	2625.89183
398.514	2615.76913
398.83	2636.01323
399.146	2588.43135
399.461	2536.76766
399.777	2610.70729
400.092	2595.51983
400.407	2562.09717
400.723	2536.76766
401.038	2439.42855
401.353	2464.78847
401.668	2555.00571
401.983	2529.67396
402.298	2510.4165
402.613	2459.71711
402.928	2395.79123
403.243	2434.35563
403.558	2439.42855
403.873	2396.80631
404.188	2385.63972
404.503	2428.26771
404.817	2440.4431
405.132	2426.2383
405.447	2451.60229
405.761	2546.90042
406.076	2590.45669
406.39	2521.56611
406.705	2530.68738
407.019	2552.97947
407.334	2516.4983
407.648	2560.0711
407.962	2498.25152
408.276	2442.47215
408.591	2495.21
408.905	2462.75996
409.219	2565.13617
409.533	2619.81837
409.847	2591.46935
410.161	2613.74443
410.475	2614.75679
410.789	2557.03191
411.102	2529.67396
411.416	2643.09743
411.73	2690.64608
412.044	2631.96483
412.357	2550.95317
412.671	2492.16836
412.984	2505.34798
413.298	2531.70079
413.611	2617.79378
413.925	2715.92601
414.238	2675.47415
414.552	2623.8674
414.865	2583.36776
415.178	2558.04499
415.491	2549.94
415.804	2561.08414
416.118	2535.75431
416.431	2437.39942
416.744	2431.31172
417.057	2431.31172
417.37	2423.1941
417.683	2422.17934
417.995	2470.87368
418.308	2558.04499
418.621	2551.96633
418.934	2430.29706
419.246	2429.28239
419.559	2574.25249
419.872	2601.59517
420.184	2586.40595
420.497	2596.53242
420.809	2680.53179
421.121	2605.64513
421.434	2475.94435
421.746	2524.60665
422.058	2611.71969
422.371	2593.49461
422.683	2499.26534
422.995	2468.84533
423.307	2454.64544
423.619	2464.78847
423.931	2450.58788
424.243	2408.98633
424.555	2415.07567
424.867	2494.19613
425.179	2531.70079
425.491	2476.95844
425.802	2425.22358
426.114	2445.51565
426.426	2441.45763
426.737	2346.03701
427.049	2370.41013
427.361	2466.81692
427.672	2497.23769
427.984	2405.9415
428.295	2406.95645
428.606	2418.12018
428.918	2406.95645
429.229	2572.22673
429.54	2538.79431
429.851	2404.92652
430.163	2360.25553
430.474	2344.0056
430.785	2414.06082
431.096	2431.31172
431.407	2438.41399
431.718	2469.85951
432.029	2406.95645
432.339	2322.67278
432.65	2415.07567
432.961	2437.39942
433.272	2306.41557
433.582	2348.06838
433.893	2399.85148
434.204	2384.6245
434.514	2394.77613
434.825	2351.11533
435.135	2403.91154
435.446	2472.90199
435.756	2407.9714
436.066	2433.34101
436.377	2586.40595
436.687	2564.12319
436.997	2448.55902
437.307	2468.84533
437.617	2464.78847
437.927	2389.70047
438.237	2358.22446
438.547	2410.00126
438.857	2437.39942
439.167	2461.74569
439.477	2483.04275
439.787	2477.97252
440.097	2432.32637
440.407	2457.68848
440.716	2496.22385
441.026	2438.41399
441.336	2526.63361
441.645	2581.34224
441.955	2449.57346
442.264	2434.35563
442.574	2595.51983
442.883	2626.90403
443.192	2469.85951
443.502	2528.66052
443.811	2604.63266
444.12	2575.26535
444.429	2537.78099
444.739	2458.7028
445.048	2471.88784
445.357	2555.00571
445.666	2584.3805
445.975	2503.32048
446.284	2405.9415
446.593	2356.19334
446.901	2441.45763
447.21	2516.4983
447.519	2416.09052
447.828	2300.31831
448.136	2404.92652
448.445	2506.36171
448.754	2433.34101
449.062	2436.38483
449.371	2510.4165
449.679	2530.68738
449.988	2535.75431
450.296	2623.8674
450.605	2685.5891
450.913	2799.79531
451.221	3063.91572
451.529	3134.3173
451.838	2960.19711
452.146	2851.28305
452.454	2908.78574
452.762	3028.6885
453.07	2904.75194
453.378	2739.17619
453.686	2700.75905
453.994	2822.01007
454.302	2837.15271
454.609	2683.56622
454.917	2664.34617
455.225	2726.03565
455.533	2679.52029
455.84	2579.31666
456.148	2551.96633
456.455	2507.37542
456.763	2575.26535
457.07	2690.64608
457.378	2761.40884
457.685	2690.64608
457.993	2628.92839
458.3	2726.03565
458.607	2804.8447
458.915	2777.57395
459.222	2840.18087
459.529	2867.4287
459.836	2858.34721
460.143	2794.74557
460.45	2678.50877
460.757	2713.90393
461.064	2788.68545
461.371	2819.99082
461.678	2779.59434
461.985	2799.79531
462.292	2894.66645
462.598	2961.20482
462.905	3037.7486
463.212	3153.41407
463.518	3189.583
463.825	3164.46769
464.131	3341.0848
464.438	3396.18419
464.744	3194.60497
465.051	3162.45807
465.357	3272.90028
465.664	3255.84352
465.97	3136.32774
466.276	3100.13109
466.582	3080.01374
466.889	3048.82049
467.195	3164.46769
467.501	3277.91617
467.807	3489.25077
468.113	3712.89124
468.419	3808.51611
468.725	3895.06475
469.031	4055.95164
469.337	4229.37235
469.642	4094.63255
469.948	3934.82241
470.254	3948.73249
470.56	3822.45056
470.865	3601.16225
471.171	3448.23712
471.477	3374.14978
471.782	3287.94683
472.088	3249.82248
472.393	3451.23896
472.698	3335.07126
473.004	3150.39914
473.309	3228.74466
473.614	3274.90668
473.92	3382.16312
474.225	3427.22054
474.53	3430.22331
474.835	3434.22679
475.14	3370.14276
475.445	3370.14276
475.75	3248.81892
476.055	3074.98351
476.36	3136.32774
476.665	3037.7486
476.97	2968.25832
477.275	3048.82049
477.58	3024.66141
477.885	2985.38539
478.189	2889.62319
478.494	2900.71791
478.799	2910.80256
479.103	2867.4287
479.408	2866.4197
479.712	2879.53562
480.017	2926.9351
480.321	2975.31114
480.625	3053.85259
480.93	3111.19316
481.234	3258.85385
481.538	3407.19871
481.843	3464.24539
482.147	3563.21286
482.451	3581.19152
482.755	3649.06829
483.059	3713.88801
483.363	3786.61357
483.667	3798.56125
483.971	3746.77331
484.275	3737.80613
484.579	3811.50229
484.883	3886.11628
485.187	3806.52525
485.49	3816.47899
485.794	3804.53434
486.098	3781.63478
486.401	3753.74699
486.705	3665.02956
487.009	3647.07287
487.312	3702.92278
487.616	3711.89446
487.919	3645.0774
488.222	3693.94995
488.526	3676.99808
488.829	3615.1383
489.132	3678.99263
489.436	3637.09492
489.739	3629.1115
490.042	3624.1214
490.345	3615.1383
490.648	3682.98157
490.951	3673.0088
491.254	3747.7696
491.557	3931.84134
491.86	3893.07629
492.163	3861.25358
492.466	3951.71288
492.769	4113.47014
493.072	4229.37235
493.375	4287.75728
493.677	4409.35047
493.98	4438.98305
494.283	4333.25039
494.585	4257.08545
494.888	4210.56181
495.19	4121.4004
495.493	4147.16828
495.795	4055.95164
496.098	3943.76491
496.4	3972.57225
496.702	3904.01212
497.005	3885.12193
497.307	3961.64665
497.609	3871.19969
497.911	3828.42163
498.213	3908.9824
498.515	3949.72597
498.818	3913.95234
499.12	3928.86014
499.422	3952.70632
499.723	3887.11061
500.025	3938.79699
500.327	3877.1667
500.629	3829.41676
500.931	3915.94023
501.233	3908.9824
501.534	3889.09922
501.836	3825.43616
502.138	3939.7906
502.439	4085.7079
502.741	4026.18385
503.042	3962.63995
503.344	3971.57908
503.645	4066.8636
503.947	4038.09236
504.248	3987.46821
504.55	3994.41864
504.851	4075.79042
505.152	4111.48745
505.453	4062.8958
505.755	4126.35641
506.056	4120.40916
506.357	4074.79861
506.658	4049.00686
506.959	4077.77402
507.26	4195.70837
507.561	4205.61096
507.862	4133.29431
508.163	4107.52192
508.464	4076.78223
508.764	4100.58175
509.065	4125.36523
509.366	4154.10436
509.667	4202.64031
509.967	4132.30322
510.268	4135.27645
510.569	4167.97474
510.869	4050.99115
511.17	4012.28821
511.47	4097.60721
511.771	4095.62412
512.071	4133.29431
512.371	4189.76624
512.672	4152.12269
512.972	4110.49608
513.272	4072.81493
513.573	4059.91981
513.873	4128.33873
514.173	4112.4788
514.473	4071.82308
514.773	4133.29431
515.073	4145.18643
515.373	4159.05834
515.673	4116.44408
515.973	4016.25865
516.273	4039.08465
516.573	4031.14595
516.873	4000.37563
517.172	4039.08465
517.472	4039.08465
517.772	4049.99901
518.072	3956.67993
518.371	4034.12306
518.671	4101.57324
518.97	4027.17629
519.27	4118.42665
519.569	4140.23159
519.869	4078.7658
520.168	4085.7079
520.468	4091.65778
520.767	4017.25123
521.066	3992.43286
521.366	4081.74106
521.665	4085.7079
521.964	3952.70632
522.263	3977.5379
522.562	4045.03813
522.861	4002.3612
523.161	3983.49624
523.46	3984.48925
523.759	4041.0692
524.057	4091.65778
524.356	4063.88777
524.655	3992.43286
524.954	3972.57225
525.253	4020.22889
525.552	4144.19549
525.85	4172.92787
526.149	4080.74932
526.448	4069.83933
526.746	4014.27346
527.045	3996.40435
527.344	4161.03985
527.642	4185.80459
527.941	4131.31211
528.239	4079.75757
528.537	4023.20642
528.836	4037.10005
529.134	3960.65333
