Data from sample_5_A_12Oclock_ST026791__110__22919.txt Node

Date: Tue Aug 19 16:33:23 AEST 2025
User: mathewyoussef
Spectrometer: ST02679
Trigger mode: 0
Integration Time (sec): 6.653700E-1
Scans to average: 1
Nonlinearity correction enabled: true
Boxcar width: 0
Storing dark spectrum: false
XAxis mode: Wavelengths
Number of Pixels in Spectrum: 1516
>>>>>Begin Spectral Data<<<<<
187.304	615.9857
187.653	628.68935
188.002	630.80567
188.351	612.80824
188.7	625.51436
189.048	637.15301
189.397	668.85394
189.746	661.4623
190.094	610.68958
190.443	611.74894
190.791	607.51107
191.14	593.73018
191.488	600.09208
191.837	587.3657
192.185	568.25651
192.533	605.39171
192.881	625.51436
193.229	597.97173
193.577	625.51436
193.925	628.68935
194.273	582.05997
194.621	578.87566
194.969	619.16254
195.317	635.0375
195.664	627.63109
196.012	619.16254
196.359	580.99861
196.707	599.03194
197.054	613.86746
197.402	607.51107
197.749	622.33876
198.096	613.86746
198.443	570.38093
198.791	562.94414
199.138	591.60898
199.485	591.60898
199.832	617.04472
200.179	596.91145
200.525	572.50506
200.872	588.42663
201.219	590.54827
201.566	618.10366
201.912	633.97964
202.259	621.28009
202.605	602.21215
202.952	609.63015
203.298	609.63015
203.644	607.51107
203.991	604.33193
204.337	589.48748
204.683	582.05997
205.029	576.75242
205.375	593.73018
205.721	643.49793
206.067	638.21066
206.413	613.86746
206.759	605.39171
207.104	580.99861
207.45	596.91145
207.796	603.27207
208.141	593.73018
208.487	591.60898
208.832	624.4559
209.177	627.63109
209.523	620.22135
209.868	608.57064
210.213	606.45143
210.558	611.74894
210.903	629.74755
211.248	613.86746
211.593	588.42663
211.938	603.27207
212.283	628.68935
212.628	629.74755
212.973	583.12126
213.317	583.12126
213.662	592.66961
214.007	621.28009
214.351	613.86746
214.696	578.87566
215.04	579.93717
215.384	607.51107
215.729	639.26825
216.073	631.86373
216.417	632.92172
216.761	629.74755
217.105	624.4559
217.449	621.28009
217.793	625.51436
218.137	641.38322
218.481	639.26825
218.824	659.34982
219.168	635.0375
219.512	597.97173
219.855	589.48748
220.199	578.87566
220.542	559.75581
220.886	607.51107
221.229	640.32577
221.572	585.24363
221.916	603.27207
222.259	618.10366
222.602	594.79068
222.945	600.09208
223.288	591.60898
223.631	599.03194
223.974	620.22135
224.317	619.16254
224.659	614.92662
225.002	590.54827
225.345	571.44303
225.687	593.73018
226.03	651.95411
226.372	632.92172
226.715	585.24363
227.057	592.66961
227.4	584.18248
227.742	599.03194
228.084	625.51436
228.426	635.0375
228.768	618.10366
229.11	594.79068
229.452	595.8511
229.794	617.04472
230.136	624.4559
230.478	599.03194
230.82	597.97173
231.161	605.39171
231.503	669.90963
231.845	677.2977
232.186	663.57452
232.528	648.78353
232.869	580.99861
233.21	588.42663
233.552	594.79068
233.893	582.05997
234.234	562.94414
234.575	603.27207
234.916	622.33876
235.257	584.18248
235.598	591.60898
235.939	624.4559
236.28	632.92172
236.621	618.10366
236.961	622.33876
237.302	636.09528
237.643	612.80824
237.983	587.3657
238.324	621.28009
238.664	668.85394
239.005	640.32577
239.345	601.15215
239.685	614.92662
240.025	628.68935
240.366	609.63015
240.706	589.48748
241.046	608.57064
241.386	625.51436
241.726	604.33193
242.066	605.39171
242.405	615.9857
242.745	626.57276
243.085	612.80824
243.425	585.24363
243.764	633.97964
244.104	713.13934
244.443	685.73743
244.783	618.10366
245.122	607.51107
245.461	609.63015
245.801	623.39736
246.14	602.21215
246.479	593.73018
246.818	591.60898
247.157	621.28009
247.496	642.44061
247.835	590.54827
248.174	594.79068
248.513	604.33193
248.852	650.89731
249.19	656.18062
249.529	614.92662
249.868	608.57064
250.206	588.42663
250.545	600.09208
250.883	631.86373
251.221	621.28009
251.56	595.8511
251.898	580.99861
252.236	606.45143
252.574	632.92172
252.912	573.56701
253.25	554.44043
253.588	599.03194
253.926	637.15301
254.264	631.86373
254.602	608.57064
254.94	588.42663
255.278	576.75242
255.615	583.12126
255.953	607.51107
256.29	621.28009
256.628	602.21215
256.965	600.09208
257.303	584.18248
257.64	618.10366
257.977	635.0375
258.314	591.60898
258.652	600.09208
258.989	623.39736
259.326	617.04472
259.663	594.79068
260	604.33193
260.337	592.66961
260.673	573.56701
261.01	600.09208
261.347	606.45143
261.684	594.79068
262.02	608.57064
262.357	585.24363
262.693	586.3047
263.03	638.21066
263.366	625.51436
263.702	602.21215
264.039	608.57064
264.375	613.86746
264.711	610.68958
265.047	621.28009
265.383	641.38322
265.719	611.74894
266.055	609.63015
266.391	658.29348
266.727	628.68935
267.063	594.79068
267.399	609.63015
267.734	605.39171
268.07	602.21215
268.405	626.57276
268.741	679.40801
269.076	658.29348
269.412	587.3657
269.747	570.38093
270.082	603.27207
270.418	587.3657
270.753	603.27207
271.088	635.0375
271.423	619.16254
271.758	624.4559
272.093	625.51436
272.428	633.97964
272.763	650.89731
273.098	617.04472
273.433	590.54827
273.767	621.28009
274.102	599.03194
274.436	604.33193
274.771	631.86373
275.106	597.97173
275.44	607.51107
275.774	615.9857
276.109	580.99861
276.443	600.09208
276.777	618.10366
277.111	628.68935
277.445	625.51436
277.78	601.15215
278.114	579.93717
278.447	551.25029
278.781	561.88144
279.115	561.88144
279.449	570.38093
279.783	618.10366
280.116	590.54827
280.45	562.94414
280.784	606.45143
281.117	633.97964
281.451	615.9857
281.784	661.4623
282.117	654.06749
282.451	586.3047
282.784	602.21215
283.117	595.8511
283.45	586.3047
283.783	578.87566
284.116	606.45143
284.449	656.18062
284.782	647.72654
285.115	660.40609
285.448	665.68648
285.781	636.09528
286.114	625.51436
286.446	621.28009
286.779	641.38322
287.111	646.66949
287.444	603.27207
287.776	595.8511
288.109	623.39736
288.441	587.3657
288.773	574.62889
289.106	637.15301
289.438	647.72654
289.77	624.4559
290.102	615.9857
290.434	626.57276
290.766	698.38958
291.098	687.84674
291.43	655.12409
291.762	633.97964
292.094	609.63015
292.425	617.04472
292.757	590.54827
293.089	621.28009
293.42	649.84046
293.752	614.92662
294.083	625.51436
294.414	628.68935
294.746	606.45143
295.077	628.68935
295.408	653.01083
295.74	701.55124
296.071	668.85394
296.402	608.57064
296.733	645.61237
297.064	667.79818
297.395	650.89731
297.726	645.61237
298.056	696.2815
298.387	702.605
298.718	699.44353
299.049	709.97967
299.379	659.34982
299.71	667.79818
300.04	677.2977
300.371	682.573
300.701	702.605
301.031	729.98193
301.362	752.06534
301.692	758.37032
302.022	754.16723
302.352	741.55257
302.682	713.13934
303.012	693.11893
303.342	734.19024
303.672	718.40427
304.002	752.06534
304.332	802.45027
304.662	795.11013
304.992	773.07418
305.321	727.87742
305.651	736.29405
305.98	810.8359
306.31	823.40823
306.639	802.45027
306.969	786.71825
307.298	759.42095
307.628	807.69168
307.957	816.07526
308.286	783.57042
308.615	809.78788
308.944	852.71586
309.273	868.40083
309.602	894.51925
309.931	928.95289
310.26	895.5634
310.589	894.51925
310.918	909.13327
311.247	951.88283
311.575	948.7572
311.904	967.50548
312.233	1036.14132
312.561	1001.844
312.89	988.32175
313.218	1096.32804
313.546	1160.54423
313.875	1046.52664
314.203	941.46263
314.531	939.37809
314.859	993.52338
315.188	976.87475
315.516	1016.39928
315.844	1078.69895
316.172	1125.34373
316.5	1163.64849
316.827	1110.83901
317.155	1091.14401
317.483	1151.22986
317.811	1137.77146
318.138	1093.21772
318.466	1123.272
318.794	1139.84232
319.121	1151.22986
319.449	1172.95967
319.776	1107.73005
320.103	1071.43711
320.431	1194.67667
320.758	1240.13921
321.085	1208.11429
321.412	1180.20008
321.739	1193.64281
322.066	1245.30212
322.393	1197.77808
322.72	1183.30267
323.047	1253.56143
323.374	1381.38127
323.701	1360.78915
324.028	1274.20252
324.354	1289.67675
324.681	1302.05217
325.008	1386.52794
325.334	1346.36942
325.661	1273.1707
325.987	1340.18818
326.314	1409.16701
326.64	1352.54984
326.966	1311.33146
327.293	1323.70086
327.619	1375.20455
327.945	1352.54984
328.271	1314.42413
328.597	1404.02266
328.923	1426.65394
329.249	1389.61569
329.575	1379.32245
329.901	1396.81969
330.227	1428.71084
330.552	1446.19123
330.878	1402.99373
331.204	1365.938
331.529	1337.09726
331.855	1431.79603
332.18	1527.35059
332.506	1393.73239
332.831	1289.67675
333.156	1420.48276
333.482	1485.24456
333.807	1446.19123
334.132	1482.16241
334.457	1479.08009
334.782	1487.29923
335.107	1466.74908
335.432	1462.63813
335.757	1535.56284
336.082	1502.70691
336.407	1466.74908
336.732	1504.76095
337.057	1563.27087
337.381	1548.90533
337.706	1470.85972
338.031	1421.51134
338.355	1470.85972
338.68	1556.08853
339.004	1532.48338
339.329	1568.4006
339.653	1570.45238
339.977	1533.50988
340.301	1583.78724
340.626	1601.22086
340.95	1587.8897
341.274	1579.68451
341.598	1556.08853
341.922	1596.09383
342.246	1622.74994
342.57	1612.49889
342.894	1638.12348
343.218	1647.34589
343.541	1662.71374
343.865	1669.8842
344.189	1668.8599
344.512	1755.87221
344.836	1776.33037
345.159	1646.32124
345.483	1626.8499
345.806	1652.4689
346.13	1722.10366
346.453	1723.12719
346.776	1691.39108
347.099	1781.44403
347.423	1811.09634
347.746	1759.9643
348.069	1782.46672
348.392	1875.4738
348.715	1802.91756
349.038	1718.00943
349.361	1747.68734
349.683	1759.9643
350.006	1755.87221
350.329	1809.05173
350.652	1872.40942
350.974	1835.62742
351.297	1801.89515
351.619	1878.53807
351.942	1922.44623
352.264	1857.08569
352.587	1848.91181
352.909	1876.49524
353.231	1836.64937
353.554	1831.53945
353.876	1848.91181
354.198	1969.39125
354.52	2053.00944
354.842	1982.65343
355.164	1993.8736
355.486	1996.93339
355.808	1925.50869
356.13	1906.11113
356.452	2072.37243
356.773	2067.27734
357.095	1944.90158
357.417	1994.89354
357.738	1975.51252
358.06	2002.03277
358.381	2035.68087
358.703	1970.41149
359.024	1959.18811
359.346	1944.90158
359.667	1939.79864
359.988	1977.55284
360.309	2043.83594
360.631	2041.79725
360.952	2010.19114
361.273	2009.17139
361.594	2074.41038
361.915	2116.17749
362.236	2046.89389
362.557	2096.82457
362.878	2114.14055
363.198	2077.46721
363.519	2104.97371
363.84	2089.69343
364.16	2054.02866
364.481	2087.65585
364.802	2094.78716
365.122	2186.42199
365.443	2255.59159
365.763	2170.13859
366.083	2100.89924
366.404	2073.39141
366.724	2099.88059
367.044	2186.42199
367.364	2118.21438
367.685	2084.59939
368.005	2085.61822
368.325	2032.62251
368.645	2125.34312
368.965	2123.3064
369.284	2076.44828
369.604	2116.17749
369.924	2193.54499
370.244	2281.00741
370.564	2275.92485
370.883	2234.23641
371.203	2217.96218
371.522	2165.04939
371.842	2238.30448
372.161	2339.94262
372.481	2319.6248
372.8	2242.37235
373.119	2253.558
373.439	2314.54457
373.758	2311.49629
374.077	2291.17159
374.396	2313.52849
374.715	2282.02388
375.034	2183.36909
375.353	2118.21438
375.672	2077.46721
375.991	1972.45194
376.31	1849.93359
376.629	1815.1854
376.948	1866.28029
377.266	1959.18811
377.585	2043.83594
377.904	2165.04939
378.222	2192.52746
378.541	2215.92769
378.859	2336.89526
379.178	2335.87945
379.496	2300.31831
379.814	2332.83194
380.133	2296.25323
380.451	2242.37235
380.769	2219.99663
381.087	2190.49235
381.405	2188.45719
381.723	2239.32146
382.041	2231.18523
382.359	2238.30448
382.677	2292.18794
382.995	2315.56064
383.313	2309.46404
383.631	2262.70879
383.949	2256.60837
384.266	2285.07323
384.584	2300.31831
384.901	2320.6408
385.219	2337.91106
385.537	2283.04034
385.854	2259.65863
386.171	2273.89175
386.489	2314.54457
386.806	2387.67012
387.123	2433.34101
387.441	2454.64544
387.758	2501.29294
388.075	2433.34101
388.392	2334.86363
388.709	2362.28655
389.026	2341.97414
389.343	2341.97414
389.66	2465.8027
389.977	2529.67396
390.294	2430.29706
390.61	2386.65492
390.927	2458.7028
391.244	2455.6598
391.56	2378.53292
391.877	2344.0056
392.193	2317.59274
392.51	2393.76102
392.826	2456.67415
393.143	2412.03106
393.459	2458.7028
393.775	2461.74569
394.092	2347.0527
394.408	2315.56064
394.724	2365.33298
395.04	2463.77422
395.356	2562.09717
395.672	2603.62017
395.988	2576.2782
396.304	2510.4165
396.62	2530.68738
396.936	2601.59517
397.252	2604.63266
397.567	2658.27569
397.883	2672.4394
398.199	2604.63266
398.514	2551.96633
398.83	2575.26535
399.146	2617.79378
399.461	2667.38123
399.777	2632.97695
400.092	2580.32945
400.407	2587.41866
400.723	2452.61669
401.038	2417.10536
401.353	2490.14053
401.668	2498.25152
401.983	2493.18225
402.298	2453.63107
402.613	2405.9415
402.928	2407.9714
403.243	2386.65492
403.558	2407.9714
403.873	2448.55902
404.188	2435.37024
404.503	2366.34844
404.817	2366.34844
405.132	2458.7028
405.447	2516.4983
405.761	2545.8872
406.076	2496.22385
406.39	2427.25301
406.705	2456.67415
407.019	2539.80762
407.334	2542.84747
407.648	2551.96633
407.962	2537.78099
408.276	2486.08473
408.591	2449.57346
408.905	2453.63107
409.219	2570.20092
409.533	2561.08414
409.847	2567.16211
410.161	2609.69489
410.475	2555.00571
410.789	2522.57964
411.102	2580.32945
411.416	2694.69143
411.73	2664.34617
412.044	2614.75679
412.357	2600.58264
412.671	2545.8872
412.984	2490.14053
413.298	2523.59315
413.611	2619.81837
413.925	2660.29924
414.238	2643.09743
414.552	2625.89183
414.865	2548.92682
415.178	2510.4165
415.491	2507.37542
415.804	2574.25249
416.118	2581.34224
416.431	2497.23769
416.744	2522.57964
417.057	2512.44381
417.37	2482.02873
417.683	2446.53012
417.995	2449.57346
418.308	2457.68848
418.621	2478.98659
418.934	2496.22385
419.246	2539.80762
419.559	2585.39324
419.872	2534.74095
420.184	2555.00571
420.497	2589.44403
420.809	2614.75679
421.121	2608.68247
421.434	2553.9926
421.746	2585.39324
422.058	2623.8674
422.371	2553.9926
422.683	2452.61669
422.995	2483.04275
423.307	2515.48469
423.619	2460.73141
423.931	2415.07567
424.243	2386.65492
424.555	2433.34101
424.867	2546.90042
425.179	2607.67003
425.491	2489.1266
425.802	2422.17934
426.114	2443.48666
426.426	2349.08404
426.737	2305.39939
427.049	2413.04594
427.361	2499.26534
427.672	2488.11266
427.984	2415.07567
428.295	2453.63107
428.606	2477.97252
428.918	2467.83113
429.229	2619.81837
429.54	2589.44403
429.851	2396.80631
430.163	2310.48017
430.474	2295.23692
430.785	2334.86363
431.096	2353.14657
431.407	2335.87945
431.718	2399.85148
432.029	2401.88154
432.339	2364.31752
432.65	2462.75996
432.961	2438.41399
433.272	2318.60878
433.582	2385.63972
433.893	2400.86652
434.204	2299.30206
434.514	2370.41013
434.825	2397.82138
435.135	2361.27104
435.446	2417.10536
435.756	2469.85951
436.066	2442.47215
436.377	2438.41399
436.687	2443.48666
436.997	2431.31172
437.307	2462.75996
437.617	2417.10536
437.927	2381.57877
438.237	2445.51565
438.547	2453.63107
438.857	2425.22358
439.167	2521.56611
439.477	2541.8342
439.787	2517.51189
440.097	2518.52546
440.407	2550.95317
440.716	2506.36171
441.026	2483.04275
441.336	2591.46935
441.645	2537.78099
441.955	2391.73077
442.264	2417.10536
442.574	2505.34798
442.883	2474.93024
443.192	2522.57964
443.502	2579.31666
443.811	2534.74095
444.12	2552.97947
444.429	2458.7028
444.739	2392.7459
445.048	2497.23769
445.357	2470.87368
445.666	2454.64544
445.975	2469.85951
446.284	2464.78847
446.593	2470.87368
446.901	2457.68848
447.21	2486.08473
447.519	2428.26771
447.828	2393.76102
448.136	2435.37024
448.445	2510.4165
448.754	2459.71711
449.062	2448.55902
449.371	2553.9926
449.679	2526.63361
449.988	2519.53903
450.296	2620.83064
450.605	2704.80387
450.913	2835.13387
451.221	3045.80105
451.529	3064.92196
451.838	2950.11933
452.146	2861.3745
452.454	2859.35632
452.762	2978.33357
453.07	2918.86928
453.378	2788.68545
453.686	2845.22752
453.994	2902.73495
454.302	2779.59434
454.609	2601.59517
454.917	2544.87397
455.225	2601.59517
455.533	2608.68247
455.84	2559.05805
456.148	2546.90042
456.455	2512.44381
456.763	2560.0711
457.07	2751.3039
457.378	2792.72559
457.685	2661.31099
457.993	2640.06142
458.3	2733.11161
458.607	2797.77545
458.915	2832.10551
459.222	2896.68366
459.529	2841.19022
459.836	2832.10551
460.143	2815.95216
460.45	2677.49724
460.757	2648.15718
461.064	2720.981
461.371	2796.76551
461.678	2770.50214
461.985	2716.93704
462.292	2849.26459
462.598	2979.34101
462.905	3001.50125
463.212	3135.32253
463.518	3178.53338
463.825	3137.33293
464.131	3316.02488
464.438	3375.1515
464.744	3275.90986
465.051	3251.82955
465.357	3248.81892
465.664	3241.79359
465.97	3169.49148
466.276	3132.30681
466.582	3097.11385
466.889	3035.73534
467.195	3124.26427
467.501	3258.85385
467.807	3519.24508
468.113	3685.97312
468.419	3762.71213
468.725	3954.69315
469.031	4085.7079
469.337	4194.71805
469.642	4090.66617
469.948	3929.85389
470.254	3987.46821
470.56	3911.96441
470.865	3715.8815
471.171	3615.1383
471.477	3563.21286
471.782	3420.21357
472.088	3194.60497
472.393	3335.07126
472.698	3347.09781
473.004	3177.52879
473.309	3310.00912
473.614	3334.06895
473.92	3361.1261
474.225	3460.24368
474.53	3456.24173
474.835	3396.18419
475.14	3362.12801
475.445	3396.18419
475.75	3320.03508
476.055	3165.47247
476.36	3110.18759
476.665	2944.07199
476.97	2894.66645
477.275	2985.38539
477.58	2959.1894
477.885	2994.45101
478.189	2910.80256
478.494	2861.3745
478.799	2860.36541
479.103	2853.30145
479.408	2856.32894
479.712	2884.57958
480.017	2944.07199
480.321	3004.52257
480.625	3009.55781
480.93	3002.50837
481.234	3160.44839
481.538	3332.06429
481.843	3417.21036
482.147	3527.24133
482.451	3521.24423
482.755	3550.22533
483.059	3665.02956
483.363	3679.98989
483.667	3702.92278
483.971	3705.91347
484.275	3740.79532
484.579	3819.46484
484.883	3851.3061
485.187	3869.21058
485.49	3852.30091
485.794	3829.41676
486.098	3717.87493
486.401	3595.17164
486.705	3646.07514
487.009	3655.0542
487.312	3701.92586
487.616	3704.91659
487.919	3615.1383
488.222	3513.24728
488.526	3578.1954
488.829	3789.60068
489.132	3737.80613
489.436	3596.17011
489.739	3629.1115
490.042	3611.14544
490.345	3643.08186
490.648	3712.89124
490.951	3757.73164
491.254	3847.32672
491.557	3849.31644
491.86	3824.44097
492.163	3904.01212
492.466	4046.03033
492.769	4160.0491
493.072	4228.38243
493.375	4320.39602
493.677	4402.43487
493.98	4422.19238
494.283	4341.15985
494.585	4194.71805
494.888	4146.17736
495.19	4089.67454
495.493	4046.03033
495.795	3974.55855
496.098	3980.51713
496.4	4060.91182
496.702	3878.16115
497.005	3886.11628
497.307	4063.88777
497.609	3898.04733
497.911	3830.41188
498.213	3906.99433
498.515	3845.33695
498.818	3852.30091
499.12	3907.98837
499.422	3899.04149
499.723	3910.97042
500.025	3958.66666
500.327	3947.739
500.629	3932.83504
500.931	3948.73249
501.233	3933.82874
501.534	3929.85389
501.836	3852.30091
502.138	3854.29049
502.439	3946.7455
502.741	3898.04733
503.042	3944.75845
503.344	4027.17629
503.645	4092.64939
503.947	3992.43286
504.248	4036.10774
504.55	4110.49608
504.851	4052.97539
505.152	4134.28538
505.453	4095.62412
505.755	4120.40916
506.056	4093.64098
506.357	4067.85552
506.658	4098.59874
506.959	4070.83121
507.26	4106.5305
507.561	4071.82308
507.862	4061.90381
508.163	4075.79042
508.464	4059.91981
508.764	4032.13834
509.065	3998.39002
509.366	4207.59134
509.667	4265.00181
509.967	4068.84743
510.268	3989.45411
510.569	4070.83121
510.869	4083.72451
511.17	3989.45411
511.47	4064.87973
511.771	4052.97539
512.071	4095.62412
512.371	4126.35641
512.672	4136.2675
512.972	4196.69868
513.272	4134.28538
513.573	4084.71621
513.873	4078.7658
514.173	4064.87973
514.473	4095.62412
514.773	4149.15008
515.073	4196.69868
515.373	4183.82368
515.673	4093.64098
515.973	4044.04592
516.273	4079.75757
516.573	4145.18643
516.873	4097.60721
517.172	4103.55618
517.472	4097.60721
517.772	4094.63255
518.072	4039.08465
518.371	4092.64939
518.671	4153.11353
518.97	4066.8636
519.27	4116.44408
519.569	4111.48745
519.869	4112.4788
520.168	4201.65007
520.468	4145.18643
520.767	4001.36842
521.066	3951.71288
521.366	4007.32487
521.665	4011.29557
521.964	3937.80337
522.263	3937.80337
522.562	4091.65778
522.861	4108.51332
523.161	3971.57908
523.46	3941.77778
523.759	3998.39002
524.057	4024.19891
524.356	3984.48925
524.655	3964.62652
524.954	3999.38283
525.253	4121.4004
525.552	4240.26072
525.85	4192.73736
526.149	4090.66617
526.448	4049.99901
526.746	4000.37563
527.045	3950.71943
527.344	4062.8958
527.642	4186.79502
527.941	4137.25855
528.239	4044.04592
528.537	4029.16115
528.836	4056.94371
