Data from sample_5_A_12Oclock_ST026791__12__22821.txt Node

Date: Tue Aug 19 16:31:11 AEST 2025
User: mathewyoussef
Spectrometer: ST02679
Trigger mode: 0
Integration Time (sec): 6.653700E-1
Scans to average: 1
Nonlinearity correction enabled: true
Boxcar width: 0
Storing dark spectrum: false
XAxis mode: Wavelengths
Number of Pixels in Spectrum: 1516
>>>>>Begin Spectral Data<<<<<
187.304	610.68958
187.653	621.28009
188.002	622.33876
188.351	590.54827
188.7	583.12126
189.048	596.91145
189.397	623.39736
189.746	605.39171
190.094	596.91145
190.443	605.39171
190.791	592.66961
191.14	603.27207
191.488	583.12126
191.837	576.75242
192.185	597.97173
192.533	573.56701
192.881	568.25651
193.229	584.18248
193.577	603.27207
193.925	611.74894
194.273	614.92662
194.621	608.57064
194.969	587.3657
195.317	599.03194
195.664	639.26825
196.012	653.01083
196.359	593.73018
196.707	564.00676
197.054	577.81408
197.402	572.50506
197.749	590.54827
198.096	608.57064
198.443	594.79068
198.791	589.48748
199.138	580.99861
199.485	589.48748
199.832	594.79068
200.179	603.27207
200.525	569.31875
200.872	558.69289
201.219	605.39171
201.566	608.57064
201.912	613.86746
202.259	603.27207
202.605	606.45143
202.952	605.39171
203.298	590.54827
203.644	609.63015
203.991	614.92662
204.337	590.54827
204.683	584.18248
205.029	615.9857
205.375	612.80824
205.721	610.68958
206.067	600.09208
206.413	599.03194
206.759	609.63015
207.104	587.3657
207.45	588.42663
207.796	593.73018
208.141	599.03194
208.487	601.15215
208.832	600.09208
209.177	603.27207
209.523	628.68935
209.868	628.68935
210.213	618.10366
210.558	614.92662
210.903	601.15215
211.248	592.66961
211.593	602.21215
211.938	603.27207
212.283	638.21066
212.628	621.28009
212.973	586.3047
213.317	597.97173
213.662	566.13178
214.007	573.56701
214.351	606.45143
214.696	613.86746
215.04	617.04472
215.384	604.33193
215.729	585.24363
216.073	603.27207
216.417	615.9857
216.761	614.92662
217.105	611.74894
217.449	610.68958
217.793	624.4559
218.137	594.79068
218.481	611.74894
218.824	642.44061
219.168	602.21215
219.512	605.39171
219.855	599.03194
220.199	590.54827
220.542	595.8511
220.886	599.03194
221.229	596.91145
221.572	579.93717
221.916	567.19418
222.259	578.87566
222.602	602.21215
222.945	596.91145
223.288	590.54827
223.631	588.42663
223.974	596.91145
224.317	591.60898
224.659	605.39171
225.002	623.39736
225.345	605.39171
225.687	577.81408
226.03	610.68958
226.372	627.63109
226.715	591.60898
227.057	609.63015
227.4	623.39736
227.742	595.8511
228.084	582.05997
228.426	593.73018
228.768	602.21215
229.11	573.56701
229.452	575.69069
229.794	586.3047
230.136	591.60898
230.478	592.66961
230.82	577.81408
231.161	587.3657
231.503	625.51436
231.845	633.97964
232.186	650.89731
232.528	617.04472
232.869	538.48278
233.21	545.93185
233.552	557.62989
233.893	583.12126
234.234	596.91145
234.575	592.66961
234.916	625.51436
235.257	600.09208
235.598	570.38093
235.939	579.93717
236.28	577.81408
236.621	583.12126
236.961	588.42663
237.302	626.57276
237.643	608.57064
237.983	566.13178
238.324	577.81408
238.664	630.80567
239.005	617.04472
239.345	579.93717
239.685	585.24363
240.025	597.97173
240.366	631.86373
240.706	626.57276
241.046	594.79068
241.386	573.56701
241.726	575.69069
242.066	588.42663
242.405	573.56701
242.745	586.3047
243.085	605.39171
243.425	591.60898
243.764	647.72654
244.104	701.55124
244.443	682.573
244.783	630.80567
245.122	588.42663
245.461	608.57064
245.801	595.8511
246.14	569.31875
246.479	604.33193
246.818	603.27207
247.157	611.74894
247.496	622.33876
247.835	612.80824
248.174	605.39171
248.513	605.39171
248.852	657.23708
249.19	614.92662
249.529	550.18675
249.868	583.12126
250.206	590.54827
250.545	585.24363
250.883	595.8511
251.221	583.12126
251.56	575.69069
251.898	594.79068
252.236	593.73018
252.574	579.93717
252.912	589.48748
253.25	609.63015
253.588	610.68958
253.926	612.80824
254.264	603.27207
254.602	574.62889
254.94	562.94414
255.278	566.13178
255.615	590.54827
255.953	606.45143
256.29	611.74894
256.628	620.22135
256.965	597.97173
257.303	587.3657
257.64	644.55518
257.977	620.22135
258.314	561.88144
258.652	559.75581
258.989	577.81408
259.326	607.51107
259.663	606.45143
260	597.97173
260.337	596.91145
260.673	594.79068
261.01	586.3047
261.347	595.8511
261.684	596.91145
262.02	590.54827
262.357	592.66961
262.693	596.91145
263.03	585.24363
263.366	601.15215
263.702	586.3047
264.039	576.75242
264.375	606.45143
264.711	587.3657
265.047	572.50506
265.383	575.69069
265.719	607.51107
266.055	625.51436
266.391	641.38322
266.727	639.26825
267.063	594.79068
267.399	571.44303
267.734	624.4559
268.07	647.72654
268.405	615.9857
268.741	633.97964
269.076	609.63015
269.412	578.87566
269.747	599.03194
270.082	614.92662
270.418	601.15215
270.753	592.66961
271.088	577.81408
271.423	572.50506
271.758	624.4559
272.093	646.66949
272.428	619.16254
272.763	596.91145
273.098	583.12126
273.433	611.74894
273.767	623.39736
274.102	617.04472
274.436	611.74894
274.771	606.45143
275.106	633.97964
275.44	626.57276
275.774	612.80824
276.109	580.99861
276.443	568.25651
276.777	569.31875
277.111	595.8511
277.445	625.51436
277.78	596.91145
278.114	628.68935
278.447	632.92172
278.781	604.33193
279.115	583.12126
279.449	562.94414
279.783	597.97173
280.116	606.45143
280.45	591.60898
280.784	607.51107
281.117	620.22135
281.451	613.86746
281.784	675.18714
282.117	669.90963
282.451	593.73018
282.784	595.8511
283.117	590.54827
283.45	590.54827
283.783	567.19418
284.116	583.12126
284.449	627.63109
284.782	642.44061
285.115	656.18062
285.448	609.63015
285.781	601.15215
286.114	594.79068
286.446	589.48748
286.779	662.51844
287.111	650.89731
287.444	596.91145
287.776	594.79068
288.109	624.4559
288.441	620.22135
288.773	575.69069
289.106	606.45143
289.438	623.39736
289.77	614.92662
290.102	599.03194
290.434	568.25651
290.766	623.39736
291.098	656.18062
291.43	630.80567
291.762	607.51107
292.094	579.93717
292.425	591.60898
292.757	584.18248
293.089	583.12126
293.42	613.86746
293.752	617.04472
294.083	629.74755
294.414	658.29348
294.746	637.15301
295.077	593.73018
295.408	641.38322
295.74	723.66772
296.071	685.73743
296.402	635.0375
296.733	655.12409
297.064	678.35288
297.395	673.07633
297.726	650.89731
298.056	695.22737
298.387	719.45707
298.718	700.49741
299.049	703.65871
299.379	684.68268
299.71	682.573
300.04	669.90963
300.371	655.12409
300.701	663.57452
301.031	739.44933
301.362	765.72359
301.692	728.9297
302.022	706.81946
302.352	674.13176
302.682	672.02082
303.012	698.38958
303.342	726.82508
303.672	707.87292
304.002	738.39763
304.332	775.17386
304.662	784.61975
304.992	791.96357
305.321	757.31963
305.651	747.86091
305.98	781.4716
306.31	783.57042
306.639	785.66903
306.969	798.25622
307.298	779.37257
307.628	784.61975
307.957	794.06133
308.286	818.17065
308.615	828.64456
308.944	828.64456
309.273	815.02749
309.602	831.78577
309.931	888.25343
310.26	888.25343
310.589	920.60968
310.918	899.73954
311.247	936.25097
311.575	964.38168
311.904	924.78163
312.233	959.17453
312.561	919.56659
312.89	904.95872
313.218	1022.63503
313.546	1067.28675
313.875	941.46263
314.203	890.34222
314.531	972.71103
314.859	1008.08288
315.188	993.52338
315.516	997.684
315.844	995.60376
316.172	1083.88498
316.5	1092.18088
316.827	1026.79146
317.155	1118.09214
317.483	1146.05416
317.811	1057.94641
318.138	1017.43867
318.466	1093.21772
318.794	1109.80273
319.121	1057.94641
319.449	1123.272
319.776	1112.9115
320.103	1071.43711
320.431	1140.8777
320.758	1161.57901
321.085	1169.85621
321.412	1192.60893
321.739	1173.9941
322.066	1164.68318
322.393	1189.5071
322.72	1184.33682
323.047	1212.248
323.374	1272.13886
323.701	1208.11429
324.028	1216.38127
324.354	1243.23703
324.681	1172.95967
325.008	1265.9473
325.334	1284.51929
325.661	1237.04115
325.987	1314.42413
326.314	1370.05669
326.64	1324.73149
326.966	1284.51929
327.293	1278.32952
327.619	1280.39288
327.945	1334.00613
328.271	1399.9068
328.597	1392.70325
328.923	1350.48979
329.249	1347.39955
329.575	1326.79268
329.901	1304.1144
330.227	1331.94526
330.552	1397.84875
330.878	1346.36942
331.204	1350.48979
331.529	1337.09726
331.855	1391.67408
332.18	1590.96637
332.506	1461.61035
332.831	1338.12759
333.156	1446.19123
333.482	1467.77677
333.807	1479.08009
334.132	1460.58254
334.457	1426.65394
334.782	1457.49901
335.107	1456.47113
335.432	1399.9068
335.757	1408.13818
336.082	1423.56844
336.407	1436.93762
336.732	1487.29923
337.057	1486.27191
337.381	1433.85273
337.706	1426.65394
338.031	1494.49
338.355	1498.5986
338.68	1498.5986
339.004	1483.18981
339.329	1523.24403
339.653	1560.19283
339.977	1534.53637
340.301	1527.35059
340.626	1469.83209
340.95	1534.53637
341.274	1577.63304
341.598	1550.95776
341.922	1595.06837
342.246	1573.52991
342.57	1558.14071
342.894	1539.66854
343.218	1561.21886
343.541	1611.4737
343.865	1664.76252
344.189	1711.86763
344.512	1698.55855
344.836	1685.24695
345.159	1622.74994
345.483	1618.64971
345.806	1624.79995
346.13	1658.61599
346.453	1716.98583
346.776	1708.79653
347.099	1759.9643
347.423	1746.66417
347.746	1651.44433
348.069	1688.31908
348.392	1786.55733
348.715	1755.87221
349.038	1771.21637
349.361	1771.21637
349.683	1720.05657
350.006	1732.33823
350.329	1734.38497
350.652	1796.78289
350.974	1820.29642
351.297	1814.16316
351.619	1813.1409
351.942	1838.69325
352.264	1840.73707
352.587	1793.71537
352.909	1814.16316
353.231	1799.85029
353.554	1819.27424
353.876	1855.0423
354.198	1874.45236
354.52	1903.04793
354.842	1893.85762
355.164	1954.08607
355.486	1958.16773
355.808	1911.21621
356.13	1884.66625
356.452	1962.24919
356.773	1979.59312
357.095	1869.34491
357.417	1864.23714
357.738	1862.19394
358.06	1923.46706
358.381	1928.57103
358.703	1915.30003
359.024	1975.51252
359.346	1944.90158
359.667	1905.09008
359.988	1872.40942
360.309	1871.38793
360.631	1892.83641
360.952	1935.71605
361.273	1947.96319
361.594	2009.17139
361.915	2092.74971
362.236	2059.12455
362.557	2071.35344
362.878	2090.7122
363.198	2026.50547
363.519	1994.89354
363.84	2044.85527
364.16	2037.71971
364.481	2065.23922
364.802	2055.04786
365.122	2060.14369
365.443	2115.15903
365.763	2082.56168
366.083	2065.23922
366.404	2040.77788
366.724	2018.3487
367.044	2066.25828
367.364	2071.35344
367.685	2011.21088
368.005	2008.15162
368.325	2064.22014
368.645	2113.12206
368.965	2057.08623
369.284	2037.71971
369.604	2134.50776
369.924	2207.78921
370.244	2276.94139
370.564	2188.45719
370.883	2090.7122
371.203	2219.99663
371.522	2196.59752
371.842	2183.36909
372.161	2210.84123
372.481	2144.68952
372.8	2134.50776
373.119	2212.87585
373.439	2247.45692
373.758	2211.85854
374.077	2171.15639
374.396	2199.64995
374.715	2191.50991
375.034	2112.10356
375.353	2144.68952
375.672	2014.27002
375.991	1851.97712
376.31	1841.75896
376.629	1820.29642
376.948	1832.56146
377.266	1923.46706
377.585	2041.79725
377.904	2110.06652
378.222	2123.3064
378.541	2160.9778
378.859	2198.63249
379.178	2191.50991
379.496	2201.68484
379.814	2254.5748
380.133	2208.80656
380.451	2211.85854
380.769	2160.9778
381.087	2113.12206
381.405	2144.68952
381.723	2153.85206
382.041	2182.35143
382.359	2177.26296
382.677	2210.84123
382.995	2252.54118
383.313	2275.92485
383.631	2232.2023
383.949	2242.37235
384.266	2323.68876
384.584	2342.98987
384.901	2307.43174
385.219	2287.10606
385.537	2294.22061
385.854	2292.18794
386.171	2287.10606
386.489	2319.6248
386.806	2353.14657
387.123	2413.04594
387.441	2417.10536
387.758	2415.07567
388.075	2389.70047
388.392	2273.89175
388.709	2250.50751
389.026	2302.35078
389.343	2340.95839
389.66	2327.75252
389.977	2402.89655
390.294	2402.89655
390.61	2403.91154
390.927	2495.21
391.244	2415.07567
391.56	2371.42552
391.877	2377.51762
392.193	2297.26952
392.51	2327.75252
392.826	2309.46404
393.143	2272.87518
393.459	2298.28579
393.775	2237.28748
394.092	2251.52435
394.408	2308.4479
394.724	2358.22446
395.04	2373.45627
395.356	2373.45627
395.672	2447.54458
395.988	2521.56611
396.304	2523.59315
396.62	2481.0147
396.936	2540.82092
397.252	2604.63266
397.567	2567.16211
397.883	2597.54499
398.199	2566.14915
398.514	2518.52546
398.83	2601.59517
399.146	2600.58264
399.461	2612.73207
399.777	2590.45669
400.092	2522.57964
400.407	2514.47108
400.723	2464.78847
401.038	2366.34844
401.353	2345.02131
401.668	2431.31172
401.983	2446.53012
402.298	2444.50116
402.613	2415.07567
402.928	2362.28655
403.243	2327.75252
403.558	2341.97414
403.873	2374.47163
404.188	2384.6245
404.503	2389.70047
404.817	2350.09969
405.132	2350.09969
405.447	2356.19334
405.761	2446.53012
406.076	2496.22385
406.39	2399.85148
406.705	2401.88154
407.019	2475.94435
407.334	2507.37542
407.648	2529.67396
407.962	2492.16836
408.276	2465.8027
408.591	2416.09052
408.905	2368.37931
409.219	2484.05675
409.533	2493.18225
409.847	2480.00065
410.161	2496.22385
410.475	2490.14053
410.789	2452.61669
411.102	2461.74569
411.416	2626.90403
411.73	2679.52029
412.044	2623.8674
412.357	2611.71969
412.671	2496.22385
412.984	2417.10536
413.298	2483.04275
413.611	2569.188
413.925	2625.89183
414.238	2609.69489
414.552	2550.95317
414.865	2456.67415
415.178	2466.81692
415.491	2418.12018
415.804	2471.88784
416.118	2525.62014
416.431	2441.45763
416.744	2411.01616
417.057	2385.63972
417.37	2396.80631
417.683	2386.65492
417.995	2406.95645
418.308	2332.83194
418.621	2375.48697
418.934	2389.70047
419.246	2358.22446
419.559	2512.44381
419.872	2548.92682
420.184	2505.34798
420.497	2496.22385
420.809	2563.11019
421.121	2538.79431
421.434	2450.58788
421.746	2417.10536
422.058	2458.7028
422.371	2456.67415
422.683	2449.57346
422.995	2440.4431
423.307	2410.00126
423.619	2509.40282
423.931	2419.13499
424.243	2369.39473
424.555	2432.32637
424.867	2425.22358
425.179	2458.7028
425.491	2428.26771
425.802	2372.4409
426.114	2342.98987
426.426	2374.47163
426.737	2392.7459
427.049	2390.71563
427.361	2523.59315
427.672	2509.40282
427.984	2327.75252
428.295	2380.5635
428.606	2393.76102
428.918	2374.47163
429.229	2566.14915
429.54	2542.84747
429.851	2308.4479
430.163	2253.558
430.474	2310.48017
430.785	2399.85148
431.096	2385.63972
431.407	2355.17776
431.718	2350.09969
432.029	2295.23692
432.339	2288.12246
432.65	2355.17776
432.961	2391.73077
433.272	2359.24
433.582	2382.59402
433.893	2374.47163
434.204	2376.5023
434.514	2388.6853
434.825	2307.43174
435.135	2278.97442
435.446	2333.84779
435.756	2394.77613
436.066	2433.34101
436.377	2498.25152
436.687	2450.58788
436.997	2309.46404
437.307	2340.95839
437.617	2379.54822
437.927	2352.13096
438.237	2372.4409
438.547	2401.88154
438.857	2391.73077
439.167	2455.6598
439.477	2489.1266
439.787	2441.45763
440.097	2416.09052
440.407	2442.47215
440.716	2377.51762
441.026	2363.30204
441.336	2514.47108
441.645	2486.08473
441.955	2403.91154
442.264	2412.03106
442.574	2515.48469
442.883	2538.79431
443.192	2452.61669
443.502	2529.67396
443.811	2550.95317
444.12	2507.37542
444.429	2418.12018
444.739	2375.48697
445.048	2447.54458
445.357	2428.26771
445.666	2449.57346
445.975	2489.1266
446.284	2428.26771
446.593	2391.73077
446.901	2391.73077
447.21	2384.6245
447.519	2360.25553
447.828	2379.54822
448.136	2440.4431
448.445	2497.23769
448.754	2459.71711
449.062	2459.71711
449.371	2534.74095
449.679	2514.47108
449.988	2536.76766
450.296	2650.18098
450.605	2641.07343
450.913	2700.75905
451.221	2964.22783
451.529	3052.8462
451.838	2866.4197
452.146	2776.56373
452.454	2816.96184
452.762	2971.28105
453.07	2868.43769
453.378	2660.29924
453.686	2729.06829
453.994	2829.07702
454.302	2738.16546
454.609	2575.26535
454.917	2545.8872
455.225	2620.83064
455.533	2633.98905
455.84	2560.0711
456.148	2532.71419
456.455	2487.0987
456.763	2574.25249
457.07	2661.31099
457.378	2665.35787
457.685	2558.04499
457.993	2483.04275
458.3	2582.355
458.607	2631.96483
458.915	2632.97695
459.222	2734.1224
459.529	2801.8151
459.836	2813.93274
460.143	2694.69143
460.45	2566.14915
460.757	2662.32273
461.064	2696.71402
461.371	2718.95905
461.678	2780.60452
461.985	2758.3775
462.292	2783.63497
462.598	2867.4287
462.905	3027.68175
463.212	3074.98351
463.518	3060.89693
463.825	3124.26427
464.131	3302.99008
464.438	3319.03255
464.744	3172.50558
465.051	3138.33811
465.357	3198.62228
465.664	3242.79725
465.97	3104.15386
466.276	3090.07314
466.582	3059.89064
466.889	2995.45823
467.195	3093.09067
467.501	3176.52417
467.807	3421.21461
468.113	3610.14718
468.419	3689.96165
468.725	3809.51152
469.031	3908.9824
469.337	4055.95164
469.642	4065.87167
469.948	3921.90355
470.254	3877.1667
470.56	3779.64316
470.865	3563.21286
471.171	3512.24759
471.477	3477.24933
471.782	3376.15321
472.088	3339.08034
472.393	3392.17846
472.698	3234.76755
473.004	3047.81402
473.309	3177.52879
473.614	3304.99559
473.92	3345.09353
474.225	3410.20236
474.53	3427.22054
474.835	3359.12224
475.14	3330.05957
475.445	3338.07809
475.75	3256.84698
476.055	3119.23721
476.36	3049.82694
476.665	2967.25072
476.97	2837.15271
477.275	2881.55324
477.58	2964.22783
477.885	2968.25832
478.189	2872.47349
478.494	2736.14396
478.799	2740.1869
479.103	2827.05796
479.408	2863.39262
479.712	2887.60579
480.017	2943.06405
480.321	2969.26591
480.625	2910.80256
480.93	3010.56482
481.234	3227.74079
481.538	3326.04995
481.843	3370.14276
482.147	3448.23712
482.451	3557.21892
482.755	3612.14367
483.059	3567.20853
483.363	3577.19667
483.667	3646.07514
483.971	3636.09704
484.275	3642.08408
484.579	3732.82386
484.883	3791.59202
485.187	3735.81327
485.49	3764.70423
485.794	3670.01669
486.098	3585.18613
486.401	3646.07514
486.705	3632.10539
487.009	3564.2118
487.312	3737.80613
487.616	3834.3922
487.919	3618.1328
488.222	3464.24539
488.526	3472.24811
488.829	3588.18194
489.132	3565.21072
489.436	3455.2412
489.739	3514.24695
490.042	3638.09278
490.345	3682.98157
490.648	3651.06365
490.951	3636.09704
491.254	3744.78071
491.557	3837.3773
491.86	3773.66797
492.163	3850.31128
492.466	3885.12193
492.769	3988.46116
493.072	4205.61096
493.375	4223.43264
493.677	4281.82165
493.98	4231.35216
494.283	4166.98408
494.585	4164.01202
494.888	4130.321
495.19	4069.83933
495.493	3987.46821
495.795	3901.02978
496.098	3887.11061
496.4	3906.00027
496.702	3891.08779
497.005	3894.07053
497.307	3876.17223
497.609	3789.60068
497.911	3738.80254
498.213	3763.70819
498.515	3792.58767
498.818	3791.59202
499.12	3796.57011
499.422	3747.7696
499.723	3776.65563
500.025	3841.35723
500.327	3735.81327
500.629	3755.73935
500.931	3841.35723
501.233	3868.216
501.534	3817.47429
501.836	3762.71213
502.138	3907.98837
502.439	3989.45411
502.741	3899.04149
503.042	3840.36227
503.344	3808.51611
503.645	3932.83504
503.947	4040.07693
504.248	4010.30291
504.55	3963.63324
504.851	4019.23635
505.152	4077.77402
505.453	4008.31756
505.755	4067.85552
506.056	4003.35396
506.357	3969.5927
506.658	4055.95164
506.959	4018.2438
507.26	4041.0692
507.561	4026.18385
507.862	4047.02252
508.163	4065.87167
508.464	4056.94371
508.764	4095.62412
509.065	3981.51018
509.366	4016.25865
509.667	4176.89015
509.967	4157.07679
510.268	4054.95957
510.569	4003.35396
510.869	4022.21393
511.17	4009.31025
511.47	4033.13071
511.771	4013.28084
512.071	4010.30291
512.371	4009.31025
512.672	3926.87261
512.972	4006.33216
513.272	4113.47014
513.573	4023.20642
513.873	4011.29557
514.173	4077.77402
514.473	4031.14595
514.773	4057.93575
515.073	4153.11353
515.373	4152.12269
515.673	4062.8958
515.973	3978.53099
516.273	4045.03813
516.573	4114.46146
516.873	4048.0147
517.172	4038.09236
517.472	4046.03033
517.772	4066.8636
518.072	4034.12306
518.371	4030.15356
518.671	4047.02252
518.97	3944.75845
519.27	4024.19891
519.569	4080.74932
519.869	4018.2438
520.168	4026.18385
520.468	3970.58589
520.767	3971.57908
521.066	4041.0692
521.366	4083.72451
521.665	4049.00686
521.964	3989.45411
522.263	3955.68655
522.562	3964.62652
522.861	3906.00027
523.161	3940.7842
523.46	3989.45411
523.759	3941.77778
524.057	3987.46821
524.356	4051.98328
524.655	3977.5379
524.954	3907.98837
525.253	3977.5379
525.552	4056.94371
525.85	4003.35396
526.149	3938.79699
526.448	3925.87883
526.746	3820.46009
527.045	3921.90355
527.344	4079.75757
527.642	4071.82308
527.941	4045.03813
528.239	3998.39002
528.537	3973.5654
528.836	3951.71288
529.134	3944.75845
