Data from sample_5_A_12Oclock_ST026791__125__22934.txt Node

Date: Tue Aug 19 16:33:43 AEST 2025
User: mathewyoussef
Spectrometer: ST02679
Trigger mode: 0
Integration Time (sec): 6.653700E-1
Scans to average: 1
Nonlinearity correction enabled: true
Boxcar width: 0
Storing dark spectrum: false
XAxis mode: Wavelengths
Number of Pixels in Spectrum: 1516
>>>>>Begin Spectral Data<<<<<
187.304	594.79068
187.653	644.55518
188.002	660.40609
188.351	626.57276
188.7	623.39736
189.048	618.10366
189.397	649.84046
189.746	640.32577
190.094	603.27207
190.443	603.27207
190.791	597.97173
191.14	613.86746
191.488	627.63109
191.837	608.57064
192.185	607.51107
192.533	610.68958
192.881	586.3047
193.229	596.91145
193.577	637.15301
193.925	620.22135
194.273	582.05997
194.621	611.74894
194.969	648.78353
195.317	610.68958
195.664	592.66961
196.012	610.68958
196.359	599.03194
196.707	600.09208
197.054	595.8511
197.402	593.73018
197.749	602.21215
198.096	582.05997
198.443	570.38093
198.791	593.73018
199.138	611.74894
199.485	618.10366
199.832	619.16254
200.179	601.15215
200.525	582.05997
200.872	576.75242
201.219	579.93717
201.566	608.57064
201.912	603.27207
202.259	585.24363
202.605	582.05997
202.952	543.80393
203.298	549.12314
203.644	615.9857
203.991	633.97964
204.337	624.4559
204.683	638.21066
205.029	637.15301
205.375	599.03194
205.721	610.68958
206.067	646.66949
206.413	609.63015
206.759	606.45143
207.104	587.3657
207.45	569.31875
207.796	624.4559
208.141	633.97964
208.487	623.39736
208.832	610.68958
209.177	580.99861
209.523	587.3657
209.868	603.27207
210.213	605.39171
210.558	601.15215
210.903	602.21215
211.248	600.09208
211.593	573.56701
211.938	568.25651
212.283	625.51436
212.628	596.91145
212.973	561.88144
213.317	579.93717
213.662	602.21215
214.007	629.74755
214.351	625.51436
214.696	606.45143
215.04	606.45143
215.384	610.68958
215.729	590.54827
216.073	632.92172
216.417	673.07633
216.761	638.21066
217.105	613.86746
217.449	612.80824
217.793	588.42663
218.137	600.09208
218.481	620.22135
218.824	635.0375
219.168	637.15301
219.512	590.54827
219.855	582.05997
220.199	590.54827
220.542	603.27207
220.886	608.57064
221.229	594.79068
221.572	578.87566
221.916	610.68958
222.259	640.32577
222.602	613.86746
222.945	603.27207
223.288	600.09208
223.631	594.79068
223.974	565.06931
224.317	560.81866
224.659	607.51107
225.002	631.86373
225.345	613.86746
225.687	577.81408
226.03	599.03194
226.372	632.92172
226.715	620.22135
227.057	595.8511
227.4	604.33193
227.742	607.51107
228.084	587.3657
228.426	605.39171
228.768	606.45143
229.11	586.3047
229.452	587.3657
229.794	592.66961
230.136	585.24363
230.478	597.97173
230.82	578.87566
231.161	548.05945
231.503	631.86373
231.845	661.4623
232.186	663.57452
232.528	650.89731
232.869	573.56701
233.21	574.62889
233.552	596.91145
233.893	592.66961
234.234	556.56681
234.575	566.13178
234.916	590.54827
235.257	591.60898
235.598	594.79068
235.939	597.97173
236.28	582.05997
236.621	573.56701
236.961	636.09528
237.302	670.96526
237.643	635.0375
237.983	614.92662
238.324	586.3047
238.664	603.27207
239.005	600.09208
239.345	569.31875
239.685	613.86746
240.025	600.09208
240.366	593.73018
240.706	613.86746
241.046	592.66961
241.386	575.69069
241.726	576.75242
242.066	574.62889
242.405	584.18248
242.745	607.51107
243.085	610.68958
243.425	584.18248
243.764	612.80824
244.104	668.85394
244.443	646.66949
244.783	607.51107
245.122	607.51107
245.461	599.03194
245.801	589.48748
246.14	595.8511
246.479	573.56701
246.818	558.69289
247.157	603.27207
247.496	618.10366
247.835	583.12126
248.174	573.56701
248.513	593.73018
248.852	642.44061
249.19	626.57276
249.529	588.42663
249.868	607.51107
250.206	606.45143
250.545	611.74894
250.883	633.97964
251.221	587.3657
251.56	554.44043
251.898	571.44303
252.236	585.24363
252.574	585.24363
252.912	561.88144
253.25	569.31875
253.588	600.09208
253.926	638.21066
254.264	627.63109
254.602	607.51107
254.94	612.80824
255.278	607.51107
255.615	588.42663
255.953	583.12126
256.29	604.33193
256.628	600.09208
256.965	604.33193
257.303	606.45143
257.64	600.09208
257.977	605.39171
258.314	595.8511
258.652	577.81408
258.989	596.91145
259.326	623.39736
259.663	625.51436
260	619.16254
260.337	591.60898
260.673	600.09208
261.01	608.57064
261.347	572.50506
261.684	565.06931
262.02	587.3657
262.357	610.68958
262.693	606.45143
263.03	608.57064
263.366	603.27207
263.702	583.12126
264.039	577.81408
264.375	584.18248
264.711	610.68958
265.047	600.09208
265.383	597.97173
265.719	594.79068
266.055	583.12126
266.391	631.86373
266.727	623.39736
267.063	596.91145
267.399	595.8511
267.734	584.18248
268.07	574.62889
268.405	575.69069
268.741	589.48748
269.076	602.21215
269.412	619.16254
269.747	608.57064
270.082	607.51107
270.418	605.39171
270.753	608.57064
271.088	595.8511
271.423	595.8511
271.758	585.24363
272.093	555.50366
272.428	595.8511
272.763	599.03194
273.098	558.69289
273.433	583.12126
273.767	609.63015
274.102	596.91145
274.436	571.44303
274.771	585.24363
275.106	606.45143
275.44	624.4559
275.774	636.09528
276.109	610.68958
276.443	600.09208
276.777	587.3657
277.111	604.33193
277.445	614.92662
277.78	603.27207
278.114	613.86746
278.447	600.09208
278.781	582.05997
279.115	600.09208
279.449	588.42663
279.783	600.09208
280.116	600.09208
280.45	576.75242
280.784	596.91145
281.117	593.73018
281.451	576.75242
281.784	614.92662
282.117	642.44061
282.451	605.39171
282.784	594.79068
283.117	649.84046
283.45	631.86373
283.783	579.93717
284.116	589.48748
284.449	596.91145
284.782	612.80824
285.115	631.86373
285.448	623.39736
285.781	593.73018
286.114	600.09208
286.446	615.9857
286.779	637.15301
287.111	612.80824
287.444	570.38093
287.776	593.73018
288.109	609.63015
288.441	587.3657
288.773	575.69069
289.106	609.63015
289.438	623.39736
289.77	618.10366
290.102	584.18248
290.434	585.24363
290.766	664.63053
291.098	637.15301
291.43	588.42663
291.762	619.16254
292.094	630.80567
292.425	605.39171
292.757	593.73018
293.089	610.68958
293.42	605.39171
293.752	608.57064
294.083	620.22135
294.414	626.57276
294.746	635.0375
295.077	621.28009
295.408	665.68648
295.74	709.97967
296.071	680.46307
296.402	633.97964
296.733	644.55518
297.064	628.68935
297.395	624.4559
297.726	663.57452
298.056	705.76593
298.387	706.81946
298.718	713.13934
299.049	762.57252
299.379	694.17318
299.71	663.57452
300.04	687.84674
300.371	677.2977
300.701	680.46307
301.031	755.21808
301.362	770.97429
301.692	727.87742
302.022	723.66772
302.352	740.50098
302.682	721.56251
303.012	667.79818
303.342	717.3514
303.672	769.92426
304.002	769.92426
304.332	760.47153
304.662	780.42211
304.992	811.88388
305.321	790.91461
305.651	799.30481
305.98	817.12298
306.31	784.61975
306.639	800.35335
306.969	830.73875
307.298	829.69168
307.628	847.48515
307.957	847.48515
308.286	819.21826
308.615	831.78577
308.944	908.0897
309.273	904.95872
309.602	873.62681
309.931	915.39378
310.26	920.60968
310.589	895.5634
310.918	887.20897
311.247	966.46425
311.575	974.79297
311.904	937.29339
312.233	976.87475
312.561	957.09139
312.89	948.7572
313.218	1075.58694
313.546	1168.82166
313.875	1034.06382
314.203	961.25751
314.531	998.72405
314.859	986.24083
315.188	977.91558
315.516	993.52338
315.844	1029.90841
316.172	1137.77146
316.5	1127.41533
316.827	1075.58694
317.155	1158.47458
317.483	1175.0285
317.811	1120.16418
318.138	1070.39957
318.466	1089.07016
318.794	1128.45108
319.121	1154.33492
319.449	1206.04727
319.776	1151.22986
320.103	1135.70048
320.431	1214.31469
320.758	1224.64651
321.085	1212.248
321.412	1206.04727
321.739	1222.58036
322.066	1229.81141
322.393	1164.68318
322.72	1182.2685
323.047	1249.43198
323.374	1295.86489
323.701	1265.9473
324.028	1283.48772
324.354	1337.09726
324.681	1243.23703
325.008	1282.45613
325.334	1314.42413
325.661	1254.59372
325.987	1347.39955
326.314	1409.16701
326.64	1313.39326
326.966	1340.18818
327.293	1369.02705
327.619	1357.69958
327.945	1375.20455
328.271	1408.13818
328.597	1400.9358
328.923	1349.45973
329.249	1388.58646
329.575	1385.49865
329.901	1360.78915
330.227	1436.93762
330.552	1486.27191
330.878	1401.96477
331.204	1365.938
331.529	1399.9068
331.855	1490.3811
332.18	1565.32282
332.506	1458.52688
332.831	1346.36942
333.156	1396.81969
333.482	1461.61035
333.807	1454.41531
334.132	1490.3811
334.457	1485.24456
334.782	1448.24736
335.107	1490.3811
335.432	1493.46281
335.757	1450.30342
336.082	1451.33142
336.407	1500.65279
336.732	1512.97638
337.057	1519.13719
337.381	1504.76095
337.706	1501.67986
338.031	1543.77396
338.355	1556.08853
338.68	1599.1701
339.004	1569.4265
339.329	1563.27087
339.653	1540.69492
339.977	1542.74763
340.301	1640.17302
340.626	1593.0174
340.95	1608.39802
341.274	1619.67479
341.598	1605.32219
341.922	1662.71374
342.246	1614.54923
342.57	1682.17467
342.894	1741.54809
343.218	1643.2472
343.541	1689.3431
343.865	1763.03321
344.189	1786.55733
344.512	1771.21637
344.836	1722.10366
345.159	1673.98127
345.483	1673.98127
345.806	1668.8599
346.13	1713.91495
346.453	1741.54809
346.776	1687.29505
347.099	1772.2392
347.423	1821.31858
347.746	1757.91828
348.069	1753.82608
348.392	1772.2392
348.715	1733.36161
349.038	1779.39861
349.361	1812.11863
349.683	1774.28481
350.006	1748.7105
350.329	1798.82784
350.652	1912.23718
350.974	1867.30184
351.297	1812.11863
351.619	1882.62357
351.942	1943.88102
352.264	1911.21621
352.587	1913.25815
352.909	1919.38365
353.231	1871.38793
353.554	1876.49524
353.876	1897.94233
354.198	1980.61323
354.52	2002.03277
354.842	1945.92213
355.164	1986.73367
355.486	1970.41149
355.808	1893.85762
356.13	1946.94267
356.452	2040.77788
356.773	2031.60304
357.095	1939.79864
357.417	1933.67468
357.738	1963.26952
358.06	2033.64198
358.381	2042.8166
358.703	1965.31015
359.024	1977.55284
359.346	1965.31015
359.667	1964.28984
359.988	1942.86044
360.309	1960.20848
360.631	2007.13185
360.952	2003.05261
361.273	2044.85527
361.594	2114.14055
361.915	2123.3064
362.236	2119.23281
362.557	2130.43471
362.878	2138.58061
363.198	2098.86193
363.519	2049.95172
363.84	2107.01087
364.16	2146.72573
364.481	2191.50991
364.802	2148.76188
365.122	2158.94194
365.443	2196.59752
365.763	2116.17749
366.083	2112.10356
366.404	2043.83594
366.724	2090.7122
367.044	2258.64189
367.364	2202.70226
367.685	2116.17749
368.005	2043.83594
368.325	2043.83594
368.645	2159.95988
368.965	2115.15903
369.284	2040.77788
369.604	2066.25828
369.924	2178.28068
370.244	2329.78432
370.564	2297.26952
370.883	2183.36909
371.203	2257.62514
371.522	2274.90831
371.842	2253.558
372.161	2273.89175
372.481	2221.01384
372.8	2249.49066
373.119	2316.5767
373.439	2330.80021
373.758	2333.84779
374.077	2266.77549
374.396	2229.15105
374.715	2225.08254
375.034	2158.94194
375.353	2147.74381
375.672	2079.50504
375.991	2021.40758
376.31	1980.61323
376.629	1921.42538
376.948	1933.67468
377.266	1986.73367
377.585	2087.65585
377.904	2225.08254
378.222	2258.64189
378.541	2240.33844
378.859	2295.23692
379.178	2317.59274
379.496	2318.60878
379.814	2307.43174
380.133	2307.43174
380.451	2291.17159
380.769	2203.71967
381.087	2166.06725
381.405	2158.94194
381.723	2154.87006
382.041	2239.32146
382.359	2309.46404
382.677	2301.33455
382.995	2288.12246
383.313	2285.07323
383.631	2282.02388
383.949	2228.13394
384.266	2238.30448
384.584	2299.30206
384.901	2332.83194
385.219	2380.5635
385.537	2362.28655
385.854	2317.59274
386.171	2352.13096
386.489	2387.67012
386.806	2443.48666
387.123	2513.45745
387.441	2442.47215
387.758	2448.55902
388.075	2414.06082
388.392	2274.90831
388.709	2260.67537
389.026	2286.08965
389.343	2358.22446
389.66	2406.95645
389.977	2435.37024
390.294	2356.19334
390.61	2301.33455
390.927	2465.8027
391.244	2443.48666
391.56	2380.5635
391.877	2404.92652
392.193	2400.86652
392.51	2419.13499
392.826	2369.39473
393.143	2357.20891
393.459	2424.20885
393.775	2394.77613
394.092	2345.02131
394.408	2433.34101
394.724	2449.57346
395.04	2461.74569
395.356	2482.02873
395.672	2515.48469
395.988	2567.16211
396.304	2536.76766
396.62	2491.15445
396.936	2612.73207
397.252	2607.67003
397.567	2522.57964
397.883	2571.21383
398.199	2603.62017
398.514	2562.09717
398.83	2592.48199
399.146	2661.31099
399.461	2675.47415
399.777	2603.62017
400.092	2573.23962
400.407	2608.68247
400.723	2518.52546
401.038	2433.34101
401.353	2470.87368
401.668	2524.60665
401.983	2473.91612
402.298	2500.27915
402.613	2502.30672
402.928	2435.37024
403.243	2377.51762
403.558	2394.77613
403.873	2474.93024
404.188	2456.67415
404.503	2370.41013
404.817	2387.67012
405.132	2413.04594
405.447	2453.63107
405.761	2538.79431
406.076	2561.08414
406.39	2502.30672
406.705	2462.75996
407.019	2512.44381
407.334	2581.34224
407.648	2592.48199
407.962	2493.18225
408.276	2441.45763
408.591	2480.00065
408.905	2531.70079
409.219	2572.22673
409.533	2509.40282
409.847	2563.11019
410.161	2609.69489
410.475	2587.41866
410.789	2569.188
411.102	2568.17506
411.416	2692.66878
411.73	2689.63471
412.044	2682.55475
412.357	2614.75679
412.671	2487.0987
412.984	2537.78099
413.298	2605.64513
413.611	2606.65759
413.925	2648.15718
414.238	2667.38123
414.552	2633.98905
414.865	2568.17506
415.178	2535.75431
415.491	2495.21
415.804	2564.12319
416.118	2559.05805
416.431	2394.77613
416.744	2422.17934
417.057	2497.23769
417.37	2484.05675
417.683	2404.92652
417.995	2476.95844
418.308	2474.93024
418.621	2391.73077
418.934	2414.06082
419.246	2492.16836
419.559	2563.11019
419.872	2561.08414
420.184	2623.8674
420.497	2701.77028
420.809	2689.63471
421.121	2535.75431
421.434	2520.55258
421.746	2588.43135
422.058	2558.04499
422.371	2552.97947
422.683	2538.79431
422.995	2467.83113
423.307	2457.68848
423.619	2518.52546
423.931	2473.91612
424.243	2421.16457
424.555	2455.6598
424.867	2565.13617
425.179	2560.0711
425.491	2486.08473
425.802	2412.03106
426.114	2388.6853
426.426	2448.55902
426.737	2335.87945
427.049	2378.53292
427.361	2513.45745
427.672	2436.38483
427.984	2353.14657
428.295	2413.04594
428.606	2436.38483
428.918	2443.48666
429.229	2631.96483
429.54	2568.17506
429.851	2361.27104
430.163	2345.02131
430.474	2291.17159
430.785	2334.86363
431.096	2412.03106
431.407	2396.80631
431.718	2433.34101
432.029	2476.95844
432.339	2423.1941
432.65	2362.28655
432.961	2383.60927
433.272	2335.87945
433.582	2367.36388
433.893	2430.29706
434.204	2375.48697
434.514	2367.36388
434.825	2307.43174
435.135	2264.74216
435.446	2358.22446
435.756	2492.16836
436.066	2492.16836
436.377	2487.0987
436.687	2511.43016
436.997	2454.64544
437.307	2443.48666
437.617	2453.63107
437.927	2485.07075
438.237	2491.15445
438.547	2490.14053
438.857	2445.51565
439.167	2426.2383
439.477	2488.11266
439.787	2534.74095
440.097	2536.76766
440.407	2526.63361
440.716	2486.08473
441.026	2476.95844
441.336	2503.32048
441.645	2506.36171
441.955	2468.84533
442.264	2420.14978
442.574	2538.79431
442.883	2531.70079
443.192	2424.20885
443.502	2508.38913
443.811	2589.44403
444.12	2520.55258
444.429	2392.7459
444.739	2364.31752
445.048	2447.54458
445.357	2467.83113
445.666	2448.55902
445.975	2481.0147
446.284	2430.29706
446.593	2470.87368
446.901	2430.29706
447.21	2380.5635
447.519	2430.29706
447.828	2460.73141
448.136	2463.77422
448.445	2466.81692
448.754	2462.75996
449.062	2468.84533
449.371	2489.1266
449.679	2474.93024
449.988	2503.32048
450.296	2616.78146
450.605	2671.42779
450.913	2786.6653
451.221	3061.90321
451.529	3103.14819
451.838	2956.16617
452.146	2894.66645
452.454	2900.71791
452.762	2966.24311
453.07	2914.83603
453.378	2759.38796
453.686	2729.06829
453.994	2798.78539
454.302	2787.67538
454.609	2654.22844
454.917	2688.62333
455.225	2716.93704
455.533	2593.49461
455.84	2526.63361
456.148	2540.82092
456.455	2556.01882
456.763	2599.57011
457.07	2663.33445
457.378	2677.49724
457.685	2671.42779
457.993	2659.28747
458.3	2700.75905
458.607	2792.72559
458.915	2784.64509
459.222	2753.32499
459.529	2809.89375
459.836	2833.11497
460.143	2675.47415
460.45	2608.68247
460.757	2683.56622
461.064	2729.06829
461.371	2735.13319
461.678	2755.34604
461.985	2758.3775
462.292	2810.90352
462.598	2972.28859
462.905	3029.69523
463.212	3118.23176
463.518	3185.56516
463.825	3128.28566
464.131	3313.01707
464.438	3412.20472
464.744	3242.79725
465.051	3188.57856
465.357	3263.87076
465.664	3246.81176
465.97	3132.30681
466.276	3117.22629
466.582	3013.58575
466.889	2963.22017
467.195	3079.00773
467.501	3265.87742
467.807	3542.23178
468.113	3658.04696
468.419	3803.53886
468.725	3970.58589
469.031	4050.99115
469.337	4220.46263
469.642	4144.19549
469.948	3994.41864
470.254	3993.42576
470.56	3844.34204
470.865	3644.07964
471.171	3577.19667
471.477	3522.24379
471.782	3356.11633
472.088	3322.0401
472.393	3443.23376
472.698	3336.07355
473.004	3145.37396
473.309	3220.71331
473.614	3310.00912
473.92	3351.10619
474.225	3471.24782
474.53	3471.24782
474.835	3421.21461
475.14	3387.17098
475.445	3391.17699
475.75	3324.04505
476.055	3199.62657
476.36	3126.27499
476.665	2993.44377
476.97	2962.2125
477.275	3009.55781
477.58	2990.42199
477.885	2984.37803
478.189	2949.11148
478.494	2949.11148
478.799	2939.03215
479.103	2874.49131
479.408	2863.39262
479.712	2892.64919
480.017	3022.64778
480.321	3132.30681
480.625	3057.87802
480.93	3068.94675
481.234	3218.70533
481.538	3314.01968
481.843	3431.2242
482.147	3522.24379
482.451	3562.21391
482.755	3629.1115
483.059	3613.1419
483.363	3642.08408
483.667	3753.74699
483.971	3725.84809
484.275	3631.10744
484.579	3660.04206
484.883	3836.38228
485.187	3837.3773
485.49	3754.74318
485.794	3750.75836
486.098	3723.85489
486.401	3782.63056
486.705	3765.70026
487.009	3582.19019
487.312	3626.11749
487.616	3774.66387
487.919	3586.18475
488.222	3532.23852
488.526	3701.92586
488.829	3706.91034
489.132	3680.98713
489.436	3655.0542
489.739	3675.00347
490.042	3676.99808
490.345	3640.08845
490.648	3713.88801
490.951	3700.92892
491.254	3671.01408
491.557	3786.61357
491.86	3807.52069
492.163	3845.33695
492.466	3948.73249
492.769	4101.57324
493.072	4261.04372
493.375	4330.28417
493.677	4434.04492
493.98	4435.03257
494.283	4306.55077
494.585	4192.73736
494.888	4172.92787
495.19	4127.34758
495.493	4094.63255
495.795	4050.99115
496.098	3938.79699
496.4	3900.03564
496.702	3839.36729
497.005	3915.94023
497.307	4075.79042
497.609	4004.3467
497.911	3961.64665
498.213	3922.89739
498.515	3800.55234
498.818	3788.60499
499.12	3832.40207
499.422	3840.36227
499.723	3843.34712
500.025	3914.94629
500.327	3933.82874
500.629	3915.94023
500.931	3888.10492
501.233	3874.18326
501.534	3902.02391
501.836	3905.0062
502.138	3909.97642
502.439	3941.77778
502.741	3951.71288
503.042	3945.75198
503.344	3985.48225
503.645	4097.60721
503.947	4062.8958
504.248	4063.88777
504.55	4120.40916
504.851	4047.02252
505.152	4113.47014
505.453	4145.18643
505.755	4127.34758
506.056	4049.99901
506.357	4003.35396
506.658	4065.87167
506.959	4109.50471
507.26	4233.33192
507.561	4193.72771
507.862	4126.35641
508.163	4174.90903
508.464	4142.21357
508.764	4181.84274
509.065	4139.24059
509.366	4148.15919
509.667	4171.93727
509.967	4063.88777
510.268	4093.64098
510.569	4114.46146
510.869	4013.28084
511.17	4043.05369
511.47	4169.95603
511.771	4109.50471
512.071	4094.63255
512.371	4097.60721
512.672	4070.83121
512.972	4101.57324
513.272	4151.13183
513.573	4115.45278
513.873	4145.18643
514.173	4215.51237
514.473	4123.38284
514.773	4086.69958
515.073	4151.13183
515.373	4180.85224
515.673	4106.5305
515.973	4089.67454
516.273	4067.85552
516.573	4069.83933
516.873	4130.321
517.172	4087.69125
517.472	4090.66617
517.772	4104.54764
518.072	4094.63255
518.371	4172.92787
518.671	4100.58175
518.97	4032.13834
519.27	4015.26606
519.569	4006.33216
519.869	4084.71621
520.168	4073.80678
520.468	4020.22889
520.767	4068.84743
521.066	4021.22141
521.366	4003.35396
521.665	4090.66617
521.964	4039.08465
522.263	3980.51713
522.562	4044.04592
522.861	4104.54764
523.161	4091.65778
523.46	4094.63255
523.759	4077.77402
524.057	4071.82308
524.356	4102.56472
524.655	4043.05369
524.954	3971.57908
525.253	3967.60626
525.552	4005.33944
525.85	4039.08465
526.149	4013.28084
526.448	4029.16115
526.746	3994.41864
527.045	3975.55168
527.344	4141.22259
527.642	4217.49251
527.941	4117.43537
528.239	4015.26606
528.537	3959.66
