Data from sample_5_A_12Oclock_ST026791__122__22931.txt Node

Date: Tue Aug 19 16:33:39 AEST 2025
User: mathewyoussef
Spectrometer: ST02679
Trigger mode: 0
Integration Time (sec): 6.653700E-1
Scans to average: 1
Nonlinearity correction enabled: true
Boxcar width: 0
Storing dark spectrum: false
XAxis mode: Wavelengths
Number of Pixels in Spectrum: 1516
>>>>>Begin Spectral Data<<<<<
187.304	622.33876
187.653	625.51436
188.002	615.9857
188.351	586.3047
188.7	575.69069
189.048	585.24363
189.397	647.72654
189.746	614.92662
190.094	567.19418
190.443	573.56701
190.791	582.05997
191.14	566.13178
191.488	572.50506
191.837	636.09528
192.185	618.10366
192.533	578.87566
192.881	608.57064
193.229	621.28009
193.577	618.10366
193.925	623.39736
194.273	642.44061
194.621	609.63015
194.969	575.69069
195.317	582.05997
195.664	607.51107
196.012	605.39171
196.359	578.87566
196.707	584.18248
197.054	613.86746
197.402	613.86746
197.749	582.05997
198.096	557.62989
198.443	575.69069
198.791	589.48748
199.138	585.24363
199.485	611.74894
199.832	615.9857
200.179	614.92662
200.525	621.28009
200.872	612.80824
201.219	597.97173
201.566	622.33876
201.912	633.97964
202.259	622.33876
202.605	574.62889
202.952	587.3657
203.298	630.80567
203.644	610.68958
203.991	595.8511
204.337	584.18248
204.683	585.24363
205.029	582.05997
205.375	583.12126
205.721	630.80567
206.067	655.12409
206.413	619.16254
206.759	608.57064
207.104	601.15215
207.45	595.8511
207.796	609.63015
208.141	624.4559
208.487	612.80824
208.832	608.57064
209.177	602.21215
209.523	575.69069
209.868	587.3657
210.213	565.06931
210.558	536.35378
210.903	583.12126
211.248	591.60898
211.593	587.3657
211.938	607.51107
212.283	639.26825
212.628	629.74755
212.973	618.10366
213.317	617.04472
213.662	592.66961
214.007	605.39171
214.351	587.3657
214.696	594.79068
215.04	588.42663
215.384	582.05997
215.729	600.09208
216.073	604.33193
216.417	606.45143
216.761	587.3657
217.105	594.79068
217.449	612.80824
217.793	624.4559
218.137	627.63109
218.481	629.74755
218.824	636.09528
219.168	626.57276
219.512	603.27207
219.855	569.31875
220.199	566.13178
220.542	577.81408
220.886	613.86746
221.229	636.09528
221.572	608.57064
221.916	573.56701
222.259	566.13178
222.602	604.33193
222.945	597.97173
223.288	586.3047
223.631	620.22135
223.974	595.8511
224.317	574.62889
224.659	608.57064
225.002	633.97964
225.345	608.57064
225.687	593.73018
226.03	620.22135
226.372	604.33193
226.715	585.24363
227.057	572.50506
227.4	586.3047
227.742	614.92662
228.084	564.00676
228.426	570.38093
228.768	607.51107
229.11	585.24363
229.452	593.73018
229.794	601.15215
230.136	600.09208
230.478	579.93717
230.82	599.03194
231.161	610.68958
231.503	646.66949
231.845	649.84046
232.186	639.26825
232.528	622.33876
232.869	568.25651
233.21	596.91145
233.552	583.12126
233.893	573.56701
234.234	607.51107
234.575	627.63109
234.916	638.21066
235.257	600.09208
235.598	601.15215
235.939	618.10366
236.28	572.50506
236.621	586.3047
236.961	614.92662
237.302	627.63109
237.643	617.04472
237.983	602.21215
238.324	603.27207
238.664	618.10366
239.005	614.92662
239.345	586.3047
239.685	593.73018
240.025	590.54827
240.366	576.75242
240.706	585.24363
241.046	592.66961
241.386	589.48748
241.726	585.24363
242.066	578.87566
242.405	560.81866
242.745	588.42663
243.085	608.57064
243.425	607.51107
243.764	624.4559
244.104	676.24245
244.443	682.573
244.783	603.27207
245.122	586.3047
245.461	585.24363
245.801	596.91145
246.14	619.16254
246.479	592.66961
246.818	552.31374
247.157	594.79068
247.496	641.38322
247.835	609.63015
248.174	585.24363
248.513	584.18248
248.852	619.16254
249.19	618.10366
249.529	608.57064
249.868	610.68958
250.206	584.18248
250.545	604.33193
250.883	621.28009
251.221	606.45143
251.56	576.75242
251.898	592.66961
252.236	646.66949
252.574	617.04472
252.912	566.13178
253.25	557.62989
253.588	577.81408
253.926	615.9857
254.264	608.57064
254.602	580.99861
254.94	555.50366
255.278	552.31374
255.615	591.60898
255.953	595.8511
256.29	612.80824
256.628	605.39171
256.965	579.93717
257.303	589.48748
257.64	638.21066
257.977	636.09528
258.314	583.12126
258.652	574.62889
258.989	602.21215
259.326	607.51107
259.663	589.48748
260	609.63015
260.337	591.60898
260.673	572.50506
261.01	590.54827
261.347	599.03194
261.684	579.93717
262.02	577.81408
262.357	588.42663
262.693	561.88144
263.03	569.31875
263.366	609.63015
263.702	604.33193
264.039	583.12126
264.375	576.75242
264.711	590.54827
265.047	592.66961
265.383	587.3657
265.719	599.03194
266.055	622.33876
266.391	653.01083
266.727	624.4559
267.063	582.05997
267.399	580.99861
267.734	606.45143
268.07	612.80824
268.405	593.73018
268.741	615.9857
269.076	620.22135
269.412	592.66961
269.747	572.50506
270.082	596.91145
270.418	599.03194
270.753	580.99861
271.088	593.73018
271.423	589.48748
271.758	567.19418
272.093	597.97173
272.428	622.33876
272.763	621.28009
273.098	625.51436
273.433	619.16254
273.767	622.33876
274.102	593.73018
274.436	577.81408
274.771	600.09208
275.106	613.86746
275.44	645.61237
275.774	640.32577
276.109	585.24363
276.443	569.31875
276.777	597.97173
277.111	638.21066
277.445	626.57276
277.78	603.27207
278.114	604.33193
278.447	591.60898
278.781	582.05997
279.115	576.75242
279.449	568.25651
279.783	585.24363
280.116	605.39171
280.45	584.18248
280.784	569.31875
281.117	599.03194
281.451	580.99861
281.784	637.15301
282.117	658.29348
282.451	579.93717
282.784	580.99861
283.117	597.97173
283.45	604.33193
283.783	594.79068
284.116	594.79068
284.449	596.91145
284.782	620.22135
285.115	620.22135
285.448	590.54827
285.781	571.44303
286.114	569.31875
286.446	576.75242
286.779	628.68935
287.111	635.0375
287.444	562.94414
287.776	577.81408
288.109	624.4559
288.441	603.27207
288.773	590.54827
289.106	670.96526
289.438	675.18714
289.77	620.22135
290.102	626.57276
290.434	611.74894
290.766	658.29348
291.098	660.40609
291.43	624.4559
291.762	644.55518
292.094	627.63109
292.425	608.57064
292.757	599.03194
293.089	629.74755
293.42	632.92172
293.752	599.03194
294.083	626.57276
294.414	654.06749
294.746	642.44061
295.077	613.86746
295.408	618.10366
295.74	666.74236
296.071	670.96526
296.402	635.0375
296.733	627.63109
297.064	639.26825
297.395	625.51436
297.726	626.57276
298.056	678.35288
298.387	715.24549
298.718	749.96324
299.049	729.98193
299.379	653.01083
299.71	686.79211
300.04	706.81946
300.371	668.85394
300.701	702.605
301.031	767.82403
301.362	751.01432
301.692	737.34586
302.022	744.70699
302.352	715.24549
302.682	722.61514
303.012	699.44353
303.342	719.45707
303.672	736.29405
304.002	754.16723
304.332	780.42211
304.662	785.66903
304.992	781.4716
305.321	764.67329
305.651	800.35335
305.98	816.07526
306.31	793.01248
306.639	793.01248
306.969	797.20757
307.298	783.57042
307.628	799.30481
307.957	821.31335
308.286	851.66981
308.615	856.89956
308.944	875.71688
309.273	886.16446
309.602	875.71688
309.931	878.85163
310.26	871.53656
310.589	892.43082
310.918	878.85163
311.247	958.13298
311.575	973.75202
311.904	927.91014
312.233	984.15975
312.561	973.75202
312.89	958.13298
313.218	1062.09802
313.546	1127.41533
313.875	1006.0034
314.203	950.841
314.531	966.46425
314.859	1012.24138
315.188	1043.41141
315.516	1039.25729
315.844	1060.02228
316.172	1092.18088
316.5	1097.36475
316.827	1060.02228
317.155	1076.62431
317.483	1117.05608
317.811	1123.272
318.138	1140.8777
318.466	1105.65725
318.794	1069.362
319.121	1125.34373
319.449	1179.16582
319.776	1134.66494
320.103	1082.84784
320.431	1160.54423
320.758	1215.34799
321.085	1215.34799
321.412	1193.64281
321.739	1188.4731
322.066	1238.07386
322.393	1197.77808
322.72	1180.20008
323.047	1230.84431
323.374	1306.17654
323.701	1276.26607
324.028	1255.62599
324.354	1276.26607
324.681	1229.81141
325.008	1297.92742
325.334	1280.39288
325.661	1214.31469
325.987	1309.26956
326.314	1391.67408
326.64	1375.20455
326.966	1378.29301
327.293	1352.54984
327.619	1367.99739
327.945	1367.99739
328.271	1332.9757
328.597	1366.96771
328.923	1412.25337
329.249	1357.69958
329.575	1332.9757
329.901	1378.29301
330.227	1433.85273
330.552	1457.49901
330.878	1406.08046
331.204	1360.78915
331.529	1337.09726
331.855	1458.52688
332.18	1549.93156
332.506	1408.13818
332.831	1315.45497
333.156	1419.45415
333.482	1466.74908
333.807	1459.55472
334.132	1489.35383
334.457	1489.35383
334.782	1469.83209
335.107	1500.65279
335.432	1490.3811
335.757	1407.10933
336.082	1413.28211
336.407	1481.13499
336.732	1509.89573
337.057	1575.58151
337.381	1543.77396
337.706	1499.62571
338.031	1519.13719
338.355	1518.11043
338.68	1618.64971
339.004	1553.01012
339.329	1533.50988
339.653	1561.21886
339.977	1500.65279
340.301	1549.93156
340.626	1574.55572
340.95	1568.4006
341.274	1607.37276
341.598	1622.74994
341.922	1628.89979
342.246	1598.14469
342.57	1608.39802
342.894	1647.34589
343.218	1622.74994
343.541	1688.31908
343.865	1659.64045
344.189	1655.54251
344.512	1708.79653
344.836	1721.08013
345.159	1727.22113
345.483	1667.83557
345.806	1645.29658
346.13	1689.3431
346.453	1689.3431
346.776	1672.95703
347.099	1773.26201
347.423	1773.26201
347.746	1693.43901
348.069	1767.1249
348.392	1793.71537
348.715	1733.36161
349.038	1752.80299
349.361	1777.35313
349.683	1805.98471
350.006	1819.27424
350.329	1813.1409
350.652	1874.45236
350.974	1805.98471
351.297	1783.48939
351.619	1875.4738
351.942	1917.34187
352.264	1904.06901
352.587	1888.75143
352.909	1855.0423
353.231	1805.98471
353.554	1879.55947
353.876	1910.19522
354.198	1959.18811
354.52	1982.65343
354.842	1945.92213
355.164	2015.28971
355.486	2047.91318
355.808	1973.47215
356.13	1912.23718
356.452	2019.36834
356.773	2053.00944
357.095	1986.73367
357.417	1995.91347
357.738	1957.14733
358.06	2003.05261
358.381	2019.36834
358.703	1951.02469
359.024	1966.33044
359.346	1936.73672
359.667	1910.19522
359.988	1917.34187
360.309	1966.33044
360.631	2048.93245
360.952	2044.85527
361.273	1982.65343
361.594	2031.60304
361.915	2128.39811
362.236	2090.7122
362.557	2125.34312
362.878	2105.9923
363.198	2073.39141
363.519	2075.42934
363.84	2061.16282
364.16	2114.14055
364.481	2138.58061
364.802	2059.12455
365.122	2100.89924
365.443	2132.47126
365.763	2075.42934
366.083	2100.89924
366.404	2065.23922
366.724	2130.43471
367.044	2204.73708
367.364	2157.92399
367.685	2112.10356
368.005	2072.37243
368.325	2055.04786
368.645	2129.41641
368.965	2114.14055
369.284	2042.8166
369.604	2059.12455
369.924	2126.36146
370.244	2178.28068
370.564	2153.85206
370.883	2196.59752
371.203	2265.75883
371.522	2228.13394
371.842	2219.99663
372.161	2252.54118
372.481	2227.11682
372.8	2232.2023
373.119	2274.90831
373.439	2319.6248
373.758	2314.54457
374.077	2299.30206
374.396	2310.48017
374.715	2270.842
375.034	2229.15105
375.353	2116.17749
375.672	2049.95172
375.991	2011.21088
376.31	1941.83985
376.629	1909.17422
376.948	1962.24919
377.266	2018.3487
377.585	2029.56405
377.904	2163.01362
378.222	2203.71967
378.541	2210.84123
378.859	2298.28579
379.178	2329.78432
379.496	2312.5124
379.814	2259.65863
380.133	2290.15523
380.451	2312.5124
380.769	2203.71967
381.087	2201.68484
381.405	2194.56251
381.723	2184.38673
382.041	2289.13885
382.359	2277.95791
382.677	2241.3554
382.995	2320.6408
383.313	2313.52849
383.631	2226.09969
383.949	2258.64189
384.266	2315.56064
384.584	2342.98987
384.901	2399.85148
385.219	2397.82138
385.537	2377.51762
385.854	2355.17776
386.171	2276.94139
386.489	2257.62514
386.806	2315.56064
387.123	2376.5023
387.441	2393.76102
387.758	2503.32048
388.075	2430.29706
388.392	2244.40622
388.709	2192.52746
389.026	2266.77549
389.343	2376.5023
389.66	2352.13096
389.977	2368.37931
390.294	2329.78432
390.61	2314.54457
390.927	2494.19613
391.244	2509.40282
391.56	2444.50116
391.877	2414.06082
392.193	2350.09969
392.51	2460.73141
392.826	2464.78847
393.143	2374.47163
393.459	2356.19334
393.775	2344.0056
394.092	2332.83194
394.408	2374.47163
394.724	2422.17934
395.04	2443.48666
395.356	2511.43016
395.672	2503.32048
395.988	2472.90199
396.304	2543.86073
396.62	2598.55756
396.936	2680.53179
397.252	2667.38123
397.567	2595.51983
397.883	2614.75679
398.199	2615.76913
398.514	2592.48199
398.83	2603.62017
399.146	2594.50723
399.461	2650.18098
399.777	2628.92839
400.092	2530.68738
400.407	2573.23962
400.723	2525.62014
401.038	2415.07567
401.353	2435.37024
401.668	2505.34798
401.983	2531.70079
402.298	2495.21
402.613	2430.29706
402.928	2410.00126
403.243	2373.45627
403.558	2402.89655
403.873	2419.13499
404.188	2342.98987
404.503	2375.48697
404.817	2432.32637
405.132	2425.22358
405.447	2441.45763
405.761	2521.56611
406.076	2606.65759
406.39	2538.79431
406.705	2443.48666
407.019	2510.4165
407.334	2499.26534
407.648	2513.45745
407.962	2506.36171
408.276	2440.4431
408.591	2473.91612
408.905	2463.77422
409.219	2599.57011
409.533	2633.98905
409.847	2647.14525
410.161	2632.97695
410.475	2544.87397
410.789	2512.44381
411.102	2517.51189
411.416	2633.98905
411.73	2625.89183
412.044	2626.90403
412.357	2580.32945
412.671	2490.14053
412.984	2470.87368
413.298	2500.27915
413.611	2589.44403
413.925	2695.70273
414.238	2711.88178
414.552	2656.25209
414.865	2543.86073
415.178	2430.29706
415.491	2493.18225
415.804	2642.08544
416.118	2632.97695
416.431	2491.15445
416.744	2452.61669
417.057	2466.81692
417.37	2440.4431
417.683	2414.06082
417.995	2492.16836
418.308	2523.59315
418.621	2454.64544
418.934	2385.63972
419.246	2454.64544
419.559	2524.60665
419.872	2461.74569
420.184	2525.62014
420.497	2581.34224
420.809	2621.84291
421.121	2581.34224
421.434	2444.50116
421.746	2490.14053
422.058	2569.188
422.371	2545.8872
422.683	2539.80762
422.995	2476.95844
423.307	2443.48666
423.619	2526.63361
423.931	2465.8027
424.243	2486.08473
424.555	2544.87397
424.867	2449.57346
425.179	2491.15445
425.491	2496.22385
425.802	2415.07567
426.114	2426.2383
426.426	2436.38483
426.737	2373.45627
427.049	2381.57877
427.361	2520.55258
427.672	2506.36171
427.984	2370.41013
428.295	2378.53292
428.606	2363.30204
428.918	2360.25553
429.229	2584.3805
429.54	2539.80762
429.851	2275.92485
430.163	2321.6568
430.474	2361.27104
430.785	2379.54822
431.096	2399.85148
431.407	2375.48697
431.718	2422.17934
432.029	2395.79123
432.339	2350.09969
432.65	2407.9714
432.961	2369.39473
433.272	2291.17159
433.582	2342.98987
433.893	2382.59402
434.204	2401.88154
434.514	2429.28239
434.825	2372.4409
435.135	2353.14657
435.446	2400.86652
435.756	2449.57346
436.066	2487.0987
436.377	2538.79431
436.687	2543.86073
436.997	2469.85951
437.307	2448.55902
437.617	2443.48666
437.927	2411.01616
438.237	2464.78847
438.547	2497.23769
438.857	2450.58788
439.167	2483.04275
439.477	2437.39942
439.787	2433.34101
440.097	2500.27915
440.407	2542.84747
440.716	2496.22385
441.026	2418.12018
441.336	2449.57346
441.645	2515.48469
441.955	2424.20885
442.264	2447.54458
442.574	2592.48199
442.883	2586.40595
443.192	2565.13617
443.502	2544.87397
443.811	2556.01882
444.12	2571.21383
444.429	2481.0147
444.739	2387.67012
445.048	2489.1266
445.357	2537.78099
445.666	2523.59315
445.975	2531.70079
446.284	2480.00065
446.593	2460.73141
446.901	2489.1266
447.21	2538.79431
447.519	2461.74569
447.828	2500.27915
448.136	2530.68738
448.445	2488.11266
448.754	2472.90199
449.062	2450.58788
449.371	2529.67396
449.679	2563.11019
449.988	2562.09717
450.296	2645.12137
450.605	2684.57767
450.913	2815.95216
451.221	3049.82694
451.529	3071.96519
451.838	2923.91052
452.146	2856.32894
452.454	2863.39262
452.762	2893.65783
453.07	2815.95216
453.378	2710.87069
453.686	2779.59434
453.994	2903.74345
454.302	2799.79531
454.609	2571.21383
454.917	2566.14915
455.225	2649.16909
455.533	2626.90403
455.84	2573.23962
456.148	2561.08414
456.455	2533.72758
456.763	2555.00571
457.07	2664.34617
457.378	2768.4815
457.685	2728.05742
457.993	2671.42779
458.3	2746.25092
458.607	2739.17619
458.915	2677.49724
459.222	2794.74557
459.529	2822.01007
459.836	2854.31063
460.143	2799.79531
460.45	2729.06829
460.757	2713.90393
461.064	2637.02529
461.371	2705.81504
461.678	2787.67538
461.985	2793.73559
462.292	2859.35632
462.598	2988.40739
462.905	3045.80105
463.212	3161.45324
463.518	3214.68919
463.825	3143.36379
464.131	3290.95575
464.438	3418.21145
464.744	3331.06193
465.051	3229.74851
465.357	3241.79359
465.664	3212.68103
465.97	3107.17079
466.276	3105.15952
466.582	3094.09649
466.889	3076.99565
467.195	3139.34328
467.501	3216.69729
467.807	3399.18832
468.113	3635.09915
468.419	3779.64316
468.725	3908.9824
469.031	3996.40435
469.337	4110.49608
469.642	4096.61567
469.948	3971.57908
470.254	3933.82874
470.56	3766.69627
470.865	3609.14892
471.171	3578.1954
471.477	3571.20396
471.782	3455.2412
472.088	3276.91302
472.393	3353.11029
472.698	3319.03255
473.004	3123.25889
473.309	3184.56067
473.614	3314.01968
473.92	3372.1463
474.225	3353.11029
474.53	3388.1725
474.835	3455.2412
475.14	3423.21665
475.445	3361.1261
475.75	3259.85726
476.055	3199.62657
476.36	3064.92196
476.665	2908.78574
476.97	2954.15061
477.275	3044.79455
477.58	3036.74198
477.885	2999.48696
478.189	2940.04014
478.494	2935.00002
478.799	2910.80256
479.103	2892.64919
479.408	2895.67507
479.712	2851.28305
480.017	2888.61449
480.321	3034.72869
480.625	3035.73534
480.93	3081.01975
481.234	3258.85385
481.538	3296.97318
481.843	3345.09353
482.147	3513.24728
482.451	3575.19916
482.755	3536.236
483.059	3528.2408
483.363	3627.11551
483.667	3739.79894
483.971	3715.8815
484.275	3671.01408
484.579	3719.86831
484.883	3823.44577
485.187	3891.08779
485.49	3853.29571
485.794	3773.66797
486.098	3788.60499
486.401	3743.78438
486.705	3680.98713
487.009	3654.05658
487.312	3683.97876
487.616	3778.64733
487.919	3604.15736
488.222	3525.24236
488.526	3685.97312
488.829	3719.86831
489.132	3681.98436
489.436	3648.07059
489.739	3636.09704
490.042	3595.17164
490.345	3645.0774
490.648	3652.06131
490.951	3639.09062
491.254	3747.7696
491.557	3765.70026
491.86	3774.66387
492.163	3906.99433
492.466	3991.43996
492.769	4089.67454
493.072	4226.40255
493.375	4327.31784
493.677	4442.93337
493.98	4425.15566
494.283	4310.50678
494.585	4250.15802
494.888	4149.15008
495.19	4052.97539
495.493	4011.29557
495.795	4013.28084
496.098	4075.79042
496.4	4086.69958
496.702	4002.3612
497.005	3977.5379
497.307	4055.95164
497.609	3982.50322
497.911	3904.01212
498.213	3874.18326
498.515	3866.22681
498.818	3862.24826
499.12	3772.67205
499.422	3776.65563
499.723	3850.31128
500.025	3920.9097
500.327	3920.9097
500.629	3930.84762
500.931	3976.54479
501.233	3980.51713
501.534	3922.89739
501.836	3861.25358
502.138	3913.95234
502.439	4041.0692
502.741	4028.16873
503.042	3941.77778
503.344	3906.00027
503.645	4007.32487
503.947	4051.98328
504.248	4041.0692
504.55	4089.67454
504.851	4081.74106
505.152	4117.43537
505.453	4079.75757
505.755	4087.69125
506.056	4072.81493
506.357	4017.25123
506.658	4090.66617
506.959	4049.99901
507.26	4100.58175
507.561	4130.321
507.862	4088.6829
508.163	4109.50471
508.464	4076.78223
508.764	4134.28538
509.065	4065.87167
509.366	4096.61567
509.667	4203.63054
509.967	4102.56472
510.268	4072.81493
510.569	4139.24059
510.869	4165.00272
511.17	4054.95957
511.47	4043.05369
511.771	4089.67454
512.071	4084.71621
512.371	4052.97539
512.672	4017.25123
512.972	4060.91182
513.272	4110.49608
513.573	4118.42665
513.873	4187.78544
514.173	4072.81493
514.473	3982.50322
514.773	4115.45278
515.073	4100.58175
515.373	4089.67454
515.673	4163.02131
515.973	4114.46146
516.273	3980.51713
516.573	4067.85552
516.873	4136.2675
517.172	4113.47014
517.472	4081.74106
517.772	4000.37563
518.072	4038.09236
518.371	4084.71621
518.671	4057.93575
518.97	4048.0147
519.27	4051.98328
519.569	4090.66617
519.869	4167.97474
520.168	4116.44408
520.468	4037.10005
520.767	4015.26606
521.066	3985.48225
521.366	4030.15356
521.665	4048.0147
521.964	4026.18385
522.263	4044.04592
522.562	4066.8636
522.861	4039.08465
523.161	3996.40435
523.46	3977.5379
523.759	3990.44704
524.057	4043.05369
524.356	4110.49608
524.655	4035.11541
524.954	3985.48225
525.253	4064.87973
525.552	4155.09519
525.85	4180.85224
526.149	4117.43537
526.448	4098.59874
526.746	4036.10774
527.045	3962.63995
527.344	4077.77402
527.642	4201.65007
527.941	4183.82368
528.239	4125.36523
528.537	4040.07693
528.836	4024.19891
