Data from sample_5_A_12Oclock_ST026791__130__22939.txt Node

Date: Tue Aug 19 16:33:50 AEST 2025
User: mathewyoussef
Spectrometer: ST02679
Trigger mode: 0
Integration Time (sec): 6.653700E-1
Scans to average: 1
Nonlinearity correction enabled: true
Boxcar width: 0
Storing dark spectrum: false
XAxis mode: Wavelengths
Number of Pixels in Spectrum: 1516
>>>>>Begin Spectral Data<<<<<
187.304	602.21215
187.653	646.66949
188.002	624.4559
188.351	579.93717
188.7	584.18248
189.048	574.62889
189.397	618.10366
189.746	625.51436
190.094	597.97173
190.443	578.87566
190.791	564.00676
191.14	593.73018
191.488	594.79068
191.837	576.75242
192.185	553.37712
192.533	578.87566
192.881	599.03194
193.229	605.39171
193.577	645.61237
193.925	636.09528
194.273	600.09208
194.621	587.3657
194.969	602.21215
195.317	613.86746
195.664	604.33193
196.012	599.03194
196.359	586.3047
196.707	601.15215
197.054	596.91145
197.402	571.44303
197.749	569.31875
198.096	559.75581
198.443	571.44303
198.791	579.93717
199.138	572.50506
199.485	597.97173
199.832	608.57064
200.179	554.44043
200.525	560.81866
200.872	605.39171
201.219	613.86746
201.566	620.22135
201.912	617.04472
202.259	609.63015
202.605	607.51107
202.952	594.79068
203.298	570.38093
203.644	584.18248
203.991	609.63015
204.337	599.03194
204.683	576.75242
205.029	576.75242
205.375	584.18248
205.721	584.18248
206.067	599.03194
206.413	628.68935
206.759	640.32577
207.104	608.57064
207.45	586.3047
207.796	601.15215
208.141	611.74894
208.487	613.86746
208.832	606.45143
209.177	596.91145
209.523	611.74894
209.868	608.57064
210.213	586.3047
210.558	570.38093
210.903	580.99861
211.248	605.39171
211.593	596.91145
211.938	579.93717
212.283	607.51107
212.628	599.03194
212.973	597.97173
213.317	574.62889
213.662	560.81866
214.007	607.51107
214.351	595.8511
214.696	592.66961
215.04	589.48748
215.384	590.54827
215.729	603.27207
216.073	577.81408
216.417	591.60898
216.761	579.93717
217.105	578.87566
217.449	593.73018
217.793	573.56701
218.137	603.27207
218.481	612.80824
218.824	605.39171
219.168	592.66961
219.512	592.66961
219.855	583.12126
220.199	570.38093
220.542	595.8511
220.886	610.68958
221.229	597.97173
221.572	588.42663
221.916	591.60898
222.259	613.86746
222.602	631.86373
222.945	629.74755
223.288	624.4559
223.631	618.10366
223.974	614.92662
224.317	609.63015
224.659	618.10366
225.002	617.04472
225.345	602.21215
225.687	613.86746
226.03	621.28009
226.372	597.97173
226.715	597.97173
227.057	584.18248
227.4	600.09208
227.742	626.57276
228.084	590.54827
228.426	576.75242
228.768	583.12126
229.11	591.60898
229.452	595.8511
229.794	583.12126
230.136	573.56701
230.478	567.19418
230.82	576.75242
231.161	591.60898
231.503	631.86373
231.845	628.68935
232.186	627.63109
232.528	650.89731
232.869	605.39171
233.21	580.99861
233.552	577.81408
233.893	579.93717
234.234	571.44303
234.575	569.31875
234.916	584.18248
235.257	602.21215
235.598	621.28009
235.939	614.92662
236.28	570.38093
236.621	565.06931
236.961	608.57064
237.302	631.86373
237.643	613.86746
237.983	589.48748
238.324	591.60898
238.664	630.80567
239.005	613.86746
239.345	590.54827
239.685	619.16254
240.025	631.86373
240.366	609.63015
240.706	597.97173
241.046	602.21215
241.386	588.42663
241.726	588.42663
242.066	568.25651
242.405	580.99861
242.745	626.57276
243.085	627.63109
243.425	605.39171
243.764	611.74894
244.104	651.95411
244.443	670.96526
244.783	615.9857
245.122	567.19418
245.461	597.97173
245.801	635.0375
246.14	595.8511
246.479	569.31875
246.818	587.3657
247.157	626.57276
247.496	662.51844
247.835	636.09528
248.174	604.33193
248.513	594.79068
248.852	636.09528
249.19	638.21066
249.529	623.39736
249.868	638.21066
250.206	624.4559
250.545	622.33876
250.883	597.97173
251.221	604.33193
251.56	606.45143
251.898	564.00676
252.236	603.27207
252.574	593.73018
252.912	562.94414
253.25	587.3657
253.588	596.91145
253.926	612.80824
254.264	587.3657
254.602	594.79068
254.94	631.86373
255.278	590.54827
255.615	572.50506
255.953	589.48748
256.29	565.06931
256.628	568.25651
256.965	583.12126
257.303	572.50506
257.64	605.39171
257.977	610.68958
258.314	592.66961
258.652	620.22135
258.989	617.04472
259.326	587.3657
259.663	588.42663
260	611.74894
260.337	582.05997
260.673	557.62989
261.01	604.33193
261.347	622.33876
261.684	600.09208
262.02	600.09208
262.357	614.92662
262.693	589.48748
263.03	587.3657
263.366	619.16254
263.702	621.28009
264.039	604.33193
264.375	590.54827
264.711	606.45143
265.047	619.16254
265.383	609.63015
265.719	606.45143
266.055	609.63015
266.391	628.68935
266.727	620.22135
267.063	582.05997
267.399	582.05997
267.734	595.8511
268.07	580.99861
268.405	580.99861
268.741	614.92662
269.076	624.4559
269.412	615.9857
269.747	614.92662
270.082	600.09208
270.418	577.81408
270.753	590.54827
271.088	621.28009
271.423	627.63109
271.758	595.8511
272.093	582.05997
272.428	577.81408
272.763	586.3047
273.098	611.74894
273.433	601.15215
273.767	587.3657
274.102	597.97173
274.436	595.8511
274.771	607.51107
275.106	597.97173
275.44	638.21066
275.774	654.06749
276.109	589.48748
276.443	582.05997
276.777	588.42663
277.111	595.8511
277.445	608.57064
277.78	611.74894
278.114	621.28009
278.447	621.28009
278.781	607.51107
279.115	610.68958
279.449	580.99861
279.783	576.75242
280.116	601.15215
280.45	589.48748
280.784	596.91145
281.117	624.4559
281.451	631.86373
281.784	699.44353
282.117	673.07633
282.451	597.97173
282.784	601.15215
283.117	605.39171
283.45	615.9857
283.783	599.03194
284.116	588.42663
284.449	585.24363
284.782	627.63109
285.115	678.35288
285.448	659.34982
285.781	589.48748
286.114	552.31374
286.446	551.25029
286.779	615.9857
287.111	647.72654
287.444	585.24363
287.776	594.79068
288.109	615.9857
288.441	584.18248
288.773	580.99861
289.106	640.32577
289.438	624.4559
289.77	580.99861
290.102	585.24363
290.434	578.87566
290.766	638.21066
291.098	641.38322
291.43	615.9857
291.762	629.74755
292.094	605.39171
292.425	593.73018
292.757	590.54827
293.089	610.68958
293.42	628.68935
293.752	630.80567
294.083	628.68935
294.414	633.97964
294.746	614.92662
295.077	611.74894
295.408	642.44061
295.74	651.95411
296.071	641.38322
296.402	639.26825
296.733	674.13176
297.064	653.01083
297.395	621.28009
297.726	648.78353
298.056	692.06461
298.387	674.13176
298.718	669.90963
299.049	711.03295
299.379	698.38958
299.71	701.55124
300.04	691.01024
300.371	693.11893
300.701	711.03295
301.031	749.96324
301.362	765.72359
301.692	752.06534
302.022	751.01432
302.352	741.55257
302.682	723.66772
303.012	686.79211
303.342	714.19244
303.672	732.0862
304.002	786.71825
304.332	820.26583
304.662	797.20757
304.992	787.76742
305.321	794.06133
305.651	842.25324
305.98	840.16014
306.31	773.07418
306.639	749.96324
306.969	755.21808
307.298	765.72359
307.628	765.72359
307.957	787.76742
308.286	867.3555
308.615	875.71688
308.944	856.89956
309.273	851.66981
309.602	861.0825
309.931	940.42038
310.26	950.841
310.589	918.52345
310.918	914.35047
311.247	952.92463
311.575	939.37809
311.904	914.35047
312.233	951.88283
312.561	925.82451
312.89	931.03827
313.218	1073.51209
313.546	1089.07016
313.875	958.13298
314.203	967.50548
314.531	959.17453
314.859	949.79912
315.188	1000.80406
315.516	1030.94732
315.844	1058.98437
316.172	1132.59378
316.5	1163.64849
316.827	1105.65725
317.155	1113.94769
317.483	1127.41533
317.811	1083.88498
318.138	1100.47468
318.466	1140.8777
318.794	1125.34373
319.121	1095.2913
319.449	1149.15967
319.776	1134.66494
320.103	1076.62431
320.431	1187.43907
320.758	1237.04115
321.085	1193.64281
321.412	1186.40501
321.739	1158.47458
322.066	1176.06288
322.393	1205.01372
322.72	1189.5071
323.047	1185.37093
323.374	1286.58235
323.701	1275.2343
324.028	1214.31469
324.354	1240.13921
324.681	1209.14776
325.008	1293.80228
325.334	1310.30052
325.661	1271.107
325.987	1363.87853
326.314	1422.5399
326.64	1386.52794
326.966	1396.81969
327.293	1372.1159
327.619	1319.5781
327.945	1345.33927
328.271	1416.36823
328.597	1417.39689
328.923	1379.32245
329.249	1381.38127
329.575	1380.35187
329.901	1381.38127
330.227	1409.16701
330.552	1452.3594
330.878	1450.30342
331.204	1399.9068
331.529	1365.938
331.855	1470.85972
332.18	1525.29734
332.506	1414.31084
332.831	1381.38127
333.156	1481.13499
333.482	1479.08009
333.807	1407.10933
334.132	1456.47113
334.457	1479.08009
334.782	1456.47113
335.107	1477.02511
335.432	1427.6824
335.757	1422.5399
336.082	1484.2172
336.407	1491.40836
336.732	1532.48338
337.057	1561.21886
337.381	1504.76095
337.706	1514.00323
338.031	1535.56284
338.355	1539.66854
338.68	1530.43031
339.004	1499.62571
339.329	1595.06837
339.653	1584.81288
339.977	1498.5986
340.301	1556.08853
340.626	1575.58151
340.95	1569.4265
341.274	1575.58151
341.598	1584.81288
341.922	1608.39802
342.246	1613.52407
342.57	1636.07388
342.894	1654.51799
343.218	1663.73814
343.541	1688.31908
343.865	1671.93277
344.189	1634.02422
344.512	1641.19776
344.836	1692.41505
345.159	1702.65392
345.483	1638.12348
345.806	1606.34749
346.13	1670.90849
346.453	1715.96222
346.776	1711.86763
347.099	1759.9643
347.423	1819.27424
347.746	1772.2392
348.069	1754.84915
348.392	1769.17066
348.715	1721.08013
349.038	1755.87221
349.361	1816.20763
349.683	1831.53945
350.006	1790.64772
350.329	1749.73365
350.652	1824.38498
350.974	1851.97712
351.297	1863.21554
351.619	1878.53807
351.942	1862.19394
352.264	1898.96348
352.587	1899.98461
352.909	1865.25872
353.231	1851.97712
353.554	1864.23714
353.876	1894.87882
354.198	1994.89354
354.52	2008.15162
354.842	1930.61253
355.164	1972.45194
355.486	1971.43172
355.808	1906.11113
356.13	1940.81925
356.452	2058.1054
356.773	2065.23922
357.095	1914.2791
357.417	1860.15068
357.738	1927.55027
358.06	2037.71971
358.381	2031.60304
358.703	1982.65343
359.024	2007.13185
359.346	1955.1065
359.667	1931.63326
359.988	1938.77801
360.309	1963.26952
360.631	1983.67351
360.952	2017.32905
361.273	2054.02866
361.594	2088.67465
361.915	2077.46721
362.236	2060.14369
362.557	2146.72573
362.878	2108.02943
363.198	2063.20104
363.519	2096.82457
363.84	2072.37243
364.16	1977.55284
364.481	2043.83594
364.802	2136.54421
365.122	2143.6714
365.443	2125.34312
365.763	2062.18194
366.083	2064.22014
366.404	2071.35344
366.724	2136.54421
367.044	2205.75447
367.364	2187.43959
367.685	2182.35143
368.005	2083.58054
368.325	2041.79725
368.645	2144.68952
368.965	2088.67465
369.284	2044.85527
369.604	2107.01087
369.924	2159.95988
370.244	2252.54118
370.564	2252.54118
370.883	2096.82457
371.203	2120.25123
371.522	2209.8239
371.842	2306.41557
372.161	2347.0527
372.481	2245.42313
372.8	2210.84123
373.119	2238.30448
373.439	2300.31831
373.758	2339.94262
374.077	2336.89526
374.396	2304.3832
374.715	2185.40437
375.034	2086.63704
375.353	2098.86193
375.672	2039.7585
375.991	1909.17422
376.31	1817.22985
376.629	1790.64772
376.948	1870.36643
377.266	1952.04516
377.585	2043.83594
377.904	2159.95988
378.222	2223.04821
378.541	2255.59159
378.859	2289.13885
379.178	2313.52849
379.496	2323.68876
379.814	2290.15523
380.133	2251.52435
380.451	2209.8239
380.769	2197.61501
381.087	2179.29838
381.405	2122.28802
381.723	2171.15639
382.041	2217.96218
382.359	2245.42313
382.677	2279.99092
382.995	2357.20891
383.313	2399.85148
383.631	2348.06838
383.949	2268.80877
384.266	2265.75883
384.584	2355.17776
384.901	2394.77613
385.219	2419.13499
385.537	2386.65492
385.854	2282.02388
386.171	2293.20428
386.489	2383.60927
386.806	2388.6853
387.123	2432.32637
387.441	2441.45763
387.758	2471.88784
388.075	2410.00126
388.392	2306.41557
388.709	2292.18794
389.026	2239.32146
389.343	2308.4479
389.66	2399.85148
389.977	2433.34101
390.294	2413.04594
390.61	2467.83113
390.927	2544.87397
391.244	2450.58788
391.56	2399.85148
391.877	2381.57877
392.193	2337.91106
392.51	2382.59402
392.826	2388.6853
393.143	2388.6853
393.459	2415.07567
393.775	2395.79123
394.092	2352.13096
394.408	2350.09969
394.724	2375.48697
395.04	2444.50116
395.356	2497.23769
395.672	2470.87368
395.988	2525.62014
396.304	2585.39324
396.62	2576.2782
396.936	2624.87962
397.252	2640.06142
397.567	2593.49461
397.883	2561.08414
398.199	2577.29103
398.514	2636.01323
398.83	2685.5891
399.146	2701.77028
399.461	2653.2166
399.777	2607.67003
400.092	2669.40454
400.407	2602.60768
400.723	2529.67396
401.038	2485.07075
401.353	2445.51565
401.668	2520.55258
401.983	2542.84747
402.298	2519.53903
402.613	2454.64544
402.928	2362.28655
403.243	2344.0056
403.558	2414.06082
403.873	2463.77422
404.188	2402.89655
404.503	2367.36388
404.817	2381.57877
405.132	2406.95645
405.447	2437.39942
405.761	2504.33424
406.076	2612.73207
406.39	2546.90042
406.705	2495.21
407.019	2552.97947
407.334	2569.188
407.648	2542.84747
407.962	2475.94435
408.276	2425.22358
408.591	2410.00126
408.905	2456.67415
409.219	2594.50723
409.533	2618.80608
409.847	2615.76913
410.161	2617.79378
410.475	2574.25249
410.789	2582.355
411.102	2558.04499
411.416	2624.87962
411.73	2681.54328
412.044	2677.49724
412.357	2577.29103
412.671	2481.0147
412.984	2529.67396
413.298	2542.84747
413.611	2605.64513
413.925	2719.97003
414.238	2676.4857
414.552	2584.3805
414.865	2525.62014
415.178	2516.4983
415.491	2518.52546
415.804	2543.86073
416.118	2538.79431
416.431	2469.85951
416.744	2462.75996
417.057	2481.0147
417.37	2477.97252
417.683	2398.83644
417.995	2424.20885
418.308	2441.45763
418.621	2461.74569
418.934	2519.53903
419.246	2575.26535
419.559	2615.76913
419.872	2593.49461
420.184	2588.43135
420.497	2582.355
420.809	2633.98905
421.121	2560.0711
421.434	2472.90199
421.746	2584.3805
422.058	2625.89183
422.371	2537.78099
422.683	2502.30672
422.995	2473.91612
423.307	2472.90199
423.619	2504.33424
423.931	2435.37024
424.243	2475.94435
424.555	2501.29294
424.867	2533.72758
425.179	2584.3805
425.491	2467.83113
425.802	2423.1941
426.114	2418.12018
426.426	2363.30204
426.737	2365.33298
427.049	2391.73077
427.361	2483.04275
427.672	2513.45745
427.984	2325.72066
428.295	2362.28655
428.606	2425.22358
428.918	2400.86652
429.229	2561.08414
429.54	2496.22385
429.851	2359.24
430.163	2366.34844
430.474	2337.91106
430.785	2431.31172
431.096	2404.92652
431.407	2410.00126
431.718	2474.93024
432.029	2514.47108
432.339	2506.36171
432.65	2445.51565
432.961	2401.88154
433.272	2379.54822
433.582	2412.03106
433.893	2375.48697
434.204	2360.25553
434.514	2350.09969
434.825	2374.47163
435.135	2394.77613
435.446	2463.77422
435.756	2487.0987
436.066	2454.64544
436.377	2562.09717
436.687	2526.63361
436.997	2392.7459
437.307	2465.8027
437.617	2503.32048
437.927	2426.2383
438.237	2380.5635
438.547	2381.57877
438.857	2447.54458
439.167	2522.57964
439.477	2485.07075
439.787	2474.93024
440.097	2507.37542
440.407	2485.07075
440.716	2411.01616
441.026	2488.11266
441.336	2607.67003
441.645	2525.62014
441.955	2398.83644
442.264	2424.20885
442.574	2530.68738
442.883	2543.86073
443.192	2489.1266
443.502	2541.8342
443.811	2631.96483
444.12	2570.20092
444.429	2429.28239
444.739	2411.01616
445.048	2465.8027
445.357	2406.95645
445.666	2425.22358
445.975	2481.0147
446.284	2442.47215
446.593	2360.25553
446.901	2325.72066
447.21	2406.95645
447.519	2421.16457
447.828	2411.01616
448.136	2458.7028
448.445	2480.00065
448.754	2454.64544
449.062	2459.71711
449.371	2489.1266
449.679	2482.02873
449.988	2525.62014
450.296	2604.63266
450.605	2663.33445
450.913	2866.4197
451.221	3028.6885
451.529	3052.8462
451.838	2969.26591
452.146	2822.01007
452.454	2843.2089
452.762	2989.4147
453.07	2856.32894
453.378	2670.41617
453.686	2691.65744
453.994	2791.71557
454.302	2784.64509
454.609	2623.8674
454.917	2603.62017
455.225	2665.35787
455.533	2665.35787
455.84	2628.92839
456.148	2623.8674
456.455	2592.48199
456.763	2575.26535
457.07	2695.70273
457.378	2765.45044
457.685	2663.33445
457.993	2619.81837
458.3	2625.89183
458.607	2679.52029
458.915	2731.08997
459.222	2775.5535
459.529	2791.71557
459.836	2797.77545
460.143	2763.42967
460.45	2679.52029
460.757	2692.66878
461.064	2746.25092
461.371	2771.51244
461.678	2765.45044
461.985	2754.33552
462.292	2761.40884
462.598	2889.62319
462.905	3024.66141
463.212	3119.23721
463.518	3196.61365
463.825	3173.51025
464.131	3339.08034
464.438	3456.24173
464.744	3271.89706
465.051	3151.40413
465.357	3239.78623
465.664	3241.79359
465.97	3062.90947
466.276	3034.72869
466.582	3026.67498
466.889	2983.37066
467.195	3102.1425
467.501	3242.79725
467.807	3519.24508
468.113	3693.94995
468.419	3739.79894
468.725	3880.15001
469.031	4033.13071
469.337	4228.38243
469.642	4157.07679
469.948	3993.42576
470.254	3975.55168
470.56	3885.12193
470.865	3682.98157
471.171	3626.11749
471.477	3554.22176
471.782	3456.24173
472.088	3398.18696
472.393	3426.21959
472.698	3417.21036
473.004	3200.63085
473.309	3177.52879
473.614	3270.89382
473.92	3390.17551
474.225	3465.24578
474.53	3435.22763
474.835	3410.20236
475.14	3371.14454
475.445	3368.13916
475.75	3210.67281
476.055	3076.99565
476.36	3097.11385
476.665	2941.04813
476.97	2885.58833
477.275	2998.4798
477.58	3035.73534
477.885	3066.93438
478.189	2933.99196
478.494	2849.26459
478.799	2867.4287
479.103	2843.2089
479.408	2878.52678
479.712	2930.96767
480.017	2954.15061
480.321	2994.45101
480.625	3041.77494
480.93	3079.00773
481.234	3209.66868
481.538	3372.1463
481.843	3440.23157
482.147	3477.24933
482.451	3534.23729
482.755	3662.0371
483.059	3693.94995
483.363	3673.0088
483.667	3723.85489
483.971	3726.84468
484.275	3692.95289
484.579	3715.8815
484.883	3826.43133
485.187	3870.20514
485.49	3861.25358
485.794	3838.3723
486.098	3785.61784
486.401	3752.7508
486.705	3729.83433
487.009	3674.00615
487.312	3662.0371
487.616	3690.95874
487.919	3638.09278
488.222	3675.00347
488.526	3729.83433
488.829	3688.96453
489.132	3703.91969
489.436	3629.1115
489.739	3580.19283
490.042	3637.09492
490.345	3718.87163
490.648	3759.72388
490.951	3737.80613
491.254	3767.69227
491.557	3855.28526
491.86	3810.50691
492.163	3837.3773
492.466	3956.67993
492.769	4083.72451
493.072	4193.72771
493.375	4338.19389
493.677	4403.42284
493.98	4371.80247
494.283	4278.85368
494.585	4202.64031
494.888	4187.78544
495.19	4056.94371
495.493	3985.48225
495.795	3926.87261
496.098	3937.80337
496.4	4027.17629
496.702	3915.94023
497.005	3823.44577
497.307	3895.06475
497.609	3838.3723
497.911	3867.22141
498.213	3902.02391
498.515	3791.59202
498.818	3807.52069
499.12	3902.02391
499.422	3930.84762
499.723	3899.04149
500.025	3904.01212
500.327	3873.18875
500.629	3892.08205
500.931	3962.63995
501.233	3952.70632
501.534	3935.81608
501.836	3920.9097
502.138	3958.66666
502.439	4015.26606
502.741	3999.38283
503.042	3990.44704
503.344	3987.46821
503.645	4036.10774
503.947	4036.10774
504.248	4056.94371
504.55	4107.52192
504.851	4140.23159
505.152	4132.30322
505.453	4009.31025
505.755	4082.73279
506.056	4115.45278
506.357	4053.96749
506.658	4103.55618
506.959	4103.55618
507.26	4135.27645
507.561	4105.53907
507.862	4044.04592
508.163	4081.74106
508.464	4064.87973
508.764	4089.67454
509.065	4103.55618
509.366	4165.00272
509.667	4181.84274
509.967	4051.98328
510.268	4008.31756
510.569	4131.31211
510.869	4162.03059
511.17	4034.12306
511.47	4034.12306
511.771	4058.92779
512.071	4138.24957
512.371	4165.9934
512.672	4088.6829
512.972	4058.92779
513.272	4112.4788
513.573	4146.17736
513.873	4127.34758
514.173	4127.34758
514.473	4095.62412
514.773	4135.27645
515.073	4127.34758
515.373	4094.63255
515.673	4095.62412
515.973	3988.46116
516.273	3991.43996
516.573	4075.79042
516.873	4080.74932
517.172	4038.09236
517.472	4007.32487
517.772	4036.10774
518.072	4032.13834
518.371	4103.55618
518.671	4195.70837
518.97	4193.72771
519.27	4140.23159
519.569	4043.05369
519.869	4021.22141
520.168	4043.05369
520.468	4055.95164
520.767	4070.83121
521.066	4010.30291
521.366	3972.57225
521.665	3958.66666
521.964	4009.31025
522.263	4030.15356
522.562	4061.90381
522.861	4031.14595
523.161	3964.62652
523.46	4018.2438
523.759	4030.15356
524.057	4068.84743
524.356	4028.16873
524.655	3904.01212
524.954	4005.33944
525.253	4075.79042
525.552	4033.13071
525.85	4096.61567
526.149	4109.50471
526.448	4085.7079
526.746	3991.43996
527.045	3983.49624
527.344	4103.55618
527.642	4148.15919
527.941	4171.93727
528.239	4137.25855
528.537	4024.19891
528.836	3990.44704
529.134	4049.99901
