Data from dark_beginning_ST026791__101__1199.txt Node

Date: Mon Aug 18 22:09:49 AEST 2025
User: mathewyoussef
Spectrometer: ST02679
Trigger mode: 0
Integration Time (sec): 6.653700E-1
Scans to average: 1
Nonlinearity correction enabled: true
Boxcar width: 0
Storing dark spectrum: false
XAxis mode: Wavelengths
Number of Pixels in Spectrum: 1516
>>>>>Begin Spectral Data<<<<<
187.304	600.09208
187.653	613.86746
188.002	590.54827
188.351	565.06931
188.7	578.87566
189.048	591.60898
189.397	596.91145
189.746	586.3047
190.094	583.12126
190.443	572.50506
190.791	557.62989
191.14	593.73018
191.488	602.21215
191.837	587.3657
192.185	588.42663
192.533	584.18248
192.881	588.42663
193.229	586.3047
193.577	577.81408
193.925	578.87566
194.273	565.06931
194.621	561.88144
194.969	579.93717
195.317	588.42663
195.664	596.91145
196.012	583.12126
196.359	551.25029
196.707	549.12314
197.054	558.69289
197.402	566.13178
197.749	551.25029
198.096	526.76937
198.443	548.05945
198.791	572.50506
199.138	555.50366
199.485	557.62989
199.832	574.62889
200.179	591.60898
200.525	588.42663
200.872	589.48748
201.219	574.62889
201.566	567.19418
201.912	566.13178
202.259	537.41832
202.605	542.73986
202.952	561.88144
203.298	571.44303
203.644	558.69289
203.991	570.38093
204.337	593.73018
204.683	578.87566
205.029	557.62989
205.375	550.18675
205.721	588.42663
206.067	621.28009
206.413	593.73018
206.759	579.93717
207.104	589.48748
207.45	584.18248
207.796	590.54827
208.141	577.81408
208.487	593.73018
208.832	601.15215
209.177	595.8511
209.523	605.39171
209.868	571.44303
210.213	555.50366
210.558	556.56681
210.903	557.62989
211.248	572.50506
211.593	577.81408
211.938	578.87566
212.283	587.3657
212.628	569.31875
212.973	571.44303
213.317	571.44303
213.662	558.69289
214.007	584.18248
214.351	592.66961
214.696	553.37712
215.04	532.09483
215.384	560.81866
215.729	588.42663
216.073	588.42663
216.417	580.99861
216.761	570.38093
217.105	572.50506
217.449	587.3657
217.793	576.75242
218.137	545.93185
218.481	560.81866
218.824	566.13178
219.168	543.80393
219.512	556.56681
219.855	570.38093
220.199	553.37712
220.542	541.6757
220.886	566.13178
221.229	566.13178
221.572	571.44303
221.916	571.44303
222.259	554.44043
222.602	561.88144
222.945	578.87566
223.288	585.24363
223.631	580.99861
223.974	572.50506
224.317	554.44043
224.659	578.87566
225.002	619.16254
225.345	626.57276
225.687	593.73018
226.03	575.69069
226.372	583.12126
226.715	585.24363
227.057	578.87566
227.4	569.31875
227.742	569.31875
228.084	583.12126
228.426	592.66961
228.768	577.81408
229.11	543.80393
229.452	549.12314
229.794	575.69069
230.136	556.56681
230.478	557.62989
230.82	556.56681
231.161	551.25029
231.503	585.24363
231.845	590.54827
232.186	607.51107
232.528	625.51436
232.869	570.38093
233.21	546.99569
233.552	557.62989
233.893	566.13178
234.234	568.25651
234.575	564.00676
234.916	599.03194
235.257	604.33193
235.598	582.05997
235.939	550.18675
236.28	560.81866
236.621	604.33193
236.961	602.21215
237.302	604.33193
237.643	585.24363
237.983	583.12126
238.324	600.09208
238.664	594.79068
239.005	584.18248
239.345	565.06931
239.685	551.25029
240.025	558.69289
240.366	585.24363
240.706	584.18248
241.046	569.31875
241.386	554.44043
241.726	552.31374
242.066	560.81866
242.405	565.06931
242.745	582.05997
243.085	575.69069
243.425	586.3047
243.764	605.39171
244.104	627.63109
244.443	625.51436
244.783	603.27207
245.122	577.81408
245.461	575.69069
245.801	606.45143
246.14	587.3657
246.479	565.06931
246.818	583.12126
247.157	602.21215
247.496	573.56701
247.835	559.75581
248.174	578.87566
248.513	584.18248
248.852	607.51107
249.19	580.99861
249.529	550.18675
249.868	586.3047
250.206	571.44303
250.545	561.88144
250.883	583.12126
251.221	596.91145
251.56	602.21215
251.898	566.13178
252.236	558.69289
252.574	555.50366
252.912	538.48278
253.25	546.99569
253.588	558.69289
253.926	583.12126
254.264	587.3657
254.602	580.99861
254.94	560.81866
255.278	540.61148
255.615	564.00676
255.953	559.75581
256.29	531.0299
256.628	537.41832
256.965	562.94414
257.303	568.25651
257.64	594.79068
257.977	594.79068
258.314	559.75581
258.652	551.25029
258.989	537.41832
259.326	570.38093
259.663	595.8511
260	587.3657
260.337	574.62889
260.673	559.75581
261.01	571.44303
261.347	577.81408
261.684	549.12314
262.02	529.96488
262.357	573.56701
262.693	600.09208
263.03	589.48748
263.366	560.81866
263.702	548.05945
264.039	537.41832
264.375	536.35378
264.711	558.69289
265.047	576.75242
265.383	584.18248
265.719	544.86793
266.055	552.31374
266.391	579.93717
266.727	595.8511
267.063	579.93717
267.399	549.12314
267.734	553.37712
268.07	572.50506
268.405	600.09208
268.741	579.93717
269.076	538.48278
269.412	546.99569
269.747	549.12314
270.082	529.96488
270.418	553.37712
270.753	567.19418
271.088	548.05945
271.423	543.80393
271.758	565.06931
272.093	589.48748
272.428	577.81408
272.763	564.00676
273.098	576.75242
273.433	574.62889
273.767	556.56681
274.102	558.69289
274.436	569.31875
274.771	586.3047
275.106	583.12126
275.44	586.3047
275.774	574.62889
276.109	549.12314
276.443	570.38093
276.777	574.62889
277.111	580.99861
277.445	609.63015
277.78	610.68958
278.114	599.03194
278.447	594.79068
278.781	570.38093
279.115	544.86793
279.449	548.05945
279.783	559.75581
280.116	574.62889
280.45	568.25651
280.784	573.56701
281.117	587.3657
281.451	553.37712
281.784	579.93717
282.117	611.74894
282.451	575.69069
282.784	570.38093
283.117	576.75242
283.45	566.13178
283.783	553.37712
284.116	539.54717
284.449	538.48278
284.782	567.19418
285.115	568.25651
285.448	561.88144
285.781	562.94414
286.114	555.50366
286.446	548.05945
286.779	597.97173
287.111	622.33876
287.444	566.13178
287.776	554.44043
288.109	593.73018
288.441	579.93717
288.773	576.75242
289.106	594.79068
289.438	578.87566
289.77	571.44303
290.102	560.81866
290.434	557.62989
290.766	589.48748
291.098	603.27207
291.43	573.56701
291.762	540.61148
292.094	538.48278
292.425	576.75242
292.757	587.3657
293.089	578.87566
293.42	571.44303
293.752	580.99861
294.083	574.62889
294.414	567.19418
294.746	585.24363
295.077	593.73018
295.408	601.15215
295.74	593.73018
296.071	583.12126
296.402	584.18248
296.733	579.93717
297.064	573.56701
297.395	569.31875
297.726	576.75242
298.056	580.99861
298.387	571.44303
298.718	577.81408
299.049	597.97173
299.379	572.50506
299.71	570.38093
300.04	610.68958
300.371	591.60898
300.701	568.25651
301.031	583.12126
301.362	545.93185
301.692	534.22446
302.022	584.18248
302.352	583.12126
302.682	582.05997
303.012	591.60898
303.342	589.48748
303.672	565.06931
304.002	587.3657
304.332	620.22135
304.662	578.87566
304.992	570.38093
305.321	573.56701
305.651	577.81408
305.98	587.3657
306.31	584.18248
306.639	582.05997
306.969	539.54717
307.298	536.35378
307.628	557.62989
307.957	554.44043
308.286	551.25029
308.615	552.31374
308.944	565.06931
309.273	557.62989
309.602	540.61148
309.931	543.80393
310.26	561.88144
310.589	567.19418
310.918	576.75242
311.247	601.15215
311.575	592.66961
311.904	580.99861
312.233	609.63015
312.561	606.45143
312.89	587.3657
313.218	605.39171
313.546	592.66961
313.875	574.62889
314.203	552.31374
314.531	558.69289
314.859	600.09208
315.188	596.91145
315.516	588.42663
315.844	585.24363
316.172	573.56701
316.5	591.60898
316.827	602.21215
317.155	591.60898
317.483	586.3047
317.811	574.62889
318.138	580.99861
318.466	591.60898
318.794	580.99861
319.121	576.75242
319.449	583.12126
319.776	594.79068
320.103	595.8511
320.431	583.12126
320.758	558.69289
321.085	548.05945
321.412	556.56681
321.739	548.05945
322.066	546.99569
322.393	577.81408
322.72	595.8511
323.047	578.87566
323.374	600.09208
323.701	572.50506
324.028	568.25651
324.354	591.60898
324.681	571.44303
325.008	594.79068
325.334	582.05997
325.661	565.06931
325.987	583.12126
326.314	587.3657
326.64	593.73018
326.966	589.48748
327.293	587.3657
327.619	571.44303
327.945	554.44043
328.271	577.81408
328.597	592.66961
328.923	567.19418
329.249	550.18675
329.575	569.31875
329.901	572.50506
330.227	556.56681
330.552	567.19418
330.878	578.87566
331.204	566.13178
331.529	568.25651
331.855	591.60898
332.18	601.15215
332.506	568.25651
332.831	559.75581
333.156	592.66961
333.482	574.62889
333.807	553.37712
334.132	576.75242
334.457	599.03194
334.782	590.54827
335.107	605.39171
335.432	607.51107
335.757	576.75242
336.082	555.50366
336.407	553.37712
336.732	592.66961
337.057	608.57064
337.381	579.93717
337.706	538.48278
338.031	542.73986
338.355	579.93717
338.68	600.09208
339.004	578.87566
339.329	593.73018
339.653	611.74894
339.977	594.79068
340.301	591.60898
340.626	599.03194
340.95	599.03194
341.274	567.19418
341.598	572.50506
341.922	608.57064
342.246	600.09208
342.57	569.31875
342.894	546.99569
343.218	578.87566
343.541	578.87566
343.865	559.75581
344.189	572.50506
344.512	553.37712
344.836	577.81408
345.159	587.3657
345.483	548.05945
345.806	539.54717
346.13	586.3047
346.453	606.45143
346.776	568.25651
347.099	572.50506
347.423	576.75242
347.746	576.75242
348.069	588.42663
348.392	596.91145
348.715	591.60898
349.038	586.3047
349.361	560.81866
349.683	541.6757
350.006	583.12126
350.329	570.38093
350.652	584.18248
350.974	569.31875
351.297	553.37712
351.619	607.51107
351.942	594.79068
352.264	586.3047
352.587	578.87566
352.909	576.75242
353.231	569.31875
353.554	582.05997
353.876	606.45143
354.198	585.24363
354.52	586.3047
354.842	593.73018
355.164	580.99861
355.486	587.3657
355.808	599.03194
356.13	582.05997
356.452	585.24363
356.773	599.03194
357.095	568.25651
357.417	562.94414
357.738	555.50366
358.06	571.44303
358.381	606.45143
358.703	574.62889
359.024	565.06931
359.346	560.81866
359.667	552.31374
359.988	546.99569
360.309	557.62989
360.631	561.88144
360.952	556.56681
361.273	556.56681
361.594	562.94414
361.915	576.75242
362.236	601.15215
362.557	609.63015
362.878	587.3657
363.198	575.69069
363.519	557.62989
363.84	568.25651
364.16	565.06931
364.481	557.62989
364.802	565.06931
365.122	586.3047
365.443	602.21215
365.763	592.66961
366.083	593.73018
366.404	593.73018
366.724	613.86746
367.044	605.39171
367.364	589.48748
367.685	597.97173
368.005	554.44043
368.325	541.6757
368.645	583.12126
368.965	559.75581
369.284	551.25029
369.604	577.81408
369.924	583.12126
370.244	593.73018
370.564	588.42663
370.883	577.81408
371.203	582.05997
371.522	577.81408
371.842	587.3657
372.161	584.18248
372.481	579.93717
372.8	594.79068
373.119	607.51107
373.439	601.15215
373.758	606.45143
374.077	587.3657
374.396	566.13178
374.715	572.50506
375.034	574.62889
375.353	600.09208
375.672	566.13178
375.991	570.38093
376.31	603.27207
376.629	576.75242
376.948	571.44303
377.266	569.31875
377.585	577.81408
377.904	576.75242
378.222	565.06931
378.541	583.12126
378.859	571.44303
379.178	578.87566
379.496	606.45143
379.814	585.24363
380.133	554.44043
380.451	555.50366
380.769	568.25651
381.087	554.44043
381.405	545.93185
381.723	571.44303
382.041	586.3047
382.359	553.37712
382.677	548.05945
382.995	582.05997
383.313	569.31875
383.631	568.25651
383.949	601.15215
384.266	583.12126
384.584	549.12314
384.901	585.24363
385.219	615.9857
385.537	613.86746
385.854	606.45143
386.171	565.06931
386.489	534.22446
386.806	579.93717
387.123	590.54827
387.441	554.44043
387.758	574.62889
388.075	591.60898
388.392	589.48748
388.709	574.62889
389.026	543.80393
389.343	545.93185
389.66	562.94414
389.977	570.38093
390.294	568.25651
390.61	587.3657
390.927	613.86746
391.244	589.48748
391.56	548.05945
391.877	550.18675
392.193	567.19418
392.51	573.56701
392.826	582.05997
393.143	580.99861
393.459	570.38093
393.775	561.88144
394.092	568.25651
394.408	567.19418
394.724	565.06931
395.04	557.62989
395.356	558.69289
395.672	576.75242
395.988	574.62889
396.304	574.62889
396.62	590.54827
396.936	611.74894
397.252	596.91145
397.567	569.31875
397.883	564.00676
398.199	561.88144
398.514	568.25651
398.83	579.93717
399.146	591.60898
399.461	570.38093
399.777	557.62989
400.092	586.3047
400.407	587.3657
400.723	573.56701
401.038	556.56681
401.353	551.25029
401.668	585.24363
401.983	590.54827
402.298	560.81866
402.613	557.62989
402.928	573.56701
403.243	567.19418
403.558	556.56681
403.873	553.37712
404.188	545.93185
404.503	554.44043
404.817	564.00676
405.132	596.91145
405.447	610.68958
405.761	618.10366
406.076	601.15215
406.39	566.13178
406.705	585.24363
407.019	565.06931
407.334	568.25651
407.648	604.33193
407.962	592.66961
408.276	564.00676
408.591	550.18675
408.905	553.37712
409.219	580.99861
409.533	582.05997
409.847	567.19418
410.161	554.44043
410.475	554.44043
410.789	582.05997
411.102	600.09208
411.416	631.86373
411.73	633.97964
412.044	590.54827
412.357	576.75242
412.671	565.06931
412.984	566.13178
413.298	599.03194
413.611	603.27207
413.925	595.8511
414.238	582.05997
414.552	590.54827
414.865	600.09208
415.178	579.93717
415.491	567.19418
415.804	589.48748
416.118	611.74894
416.431	590.54827
416.744	566.13178
417.057	566.13178
417.37	569.31875
417.683	603.27207
417.995	592.66961
418.308	537.41832
418.621	537.41832
418.934	549.12314
419.246	556.56681
419.559	585.24363
419.872	596.91145
420.184	575.69069
420.497	566.13178
420.809	585.24363
421.121	603.27207
421.434	601.15215
421.746	560.81866
422.058	536.35378
422.371	569.31875
422.683	595.8511
422.995	578.87566
423.307	554.44043
423.619	566.13178
423.931	565.06931
424.243	573.56701
424.555	580.99861
424.867	604.33193
425.179	626.57276
425.491	612.80824
425.802	594.79068
426.114	579.93717
426.426	584.18248
426.737	585.24363
427.049	577.81408
427.361	605.39171
427.672	617.04472
427.984	578.87566
428.295	595.8511
428.606	604.33193
428.918	577.81408
429.229	602.21215
429.54	599.03194
429.851	588.42663
430.163	595.8511
430.474	576.75242
430.785	583.12126
431.096	574.62889
431.407	564.00676
431.718	577.81408
432.029	582.05997
432.339	568.25651
432.65	572.50506
432.961	559.75581
433.272	562.94414
433.582	584.18248
433.893	569.31875
434.204	548.05945
434.514	544.86793
434.825	567.19418
435.135	577.81408
435.446	591.60898
435.756	587.3657
436.066	594.79068
436.377	630.80567
436.687	613.86746
436.997	575.69069
437.307	577.81408
437.617	561.88144
437.927	546.99569
438.237	546.99569
438.547	544.86793
438.857	560.81866
439.167	583.12126
439.477	577.81408
439.787	553.37712
440.097	548.05945
440.407	557.62989
440.716	575.69069
441.026	587.3657
441.336	601.15215
441.645	608.57064
441.955	591.60898
442.264	564.00676
442.574	577.81408
442.883	601.15215
443.192	595.8511
443.502	592.66961
443.811	604.33193
444.12	585.24363
444.429	564.00676
444.739	574.62889
445.048	578.87566
445.357	594.79068
445.666	568.25651
445.975	560.81866
446.284	589.48748
446.593	578.87566
446.901	566.13178
447.21	546.99569
447.519	558.69289
447.828	603.27207
448.136	606.45143
448.445	588.42663
448.754	579.93717
449.062	556.56681
449.371	568.25651
449.679	608.57064
449.988	582.05997
450.296	584.18248
450.605	580.99861
450.913	578.87566
451.221	628.68935
451.529	615.9857
451.838	591.60898
452.146	572.50506
452.454	561.88144
452.762	584.18248
453.07	574.62889
453.378	545.93185
453.686	561.88144
453.994	617.04472
454.302	605.39171
454.609	561.88144
454.917	568.25651
455.225	588.42663
455.533	576.75242
455.84	569.31875
456.148	556.56681
456.455	570.38093
456.763	597.97173
457.07	606.45143
457.378	613.86746
457.685	564.00676
457.993	537.41832
458.3	566.13178
458.607	569.31875
458.915	565.06931
459.222	607.51107
459.529	595.8511
459.836	588.42663
460.143	590.54827
460.45	572.50506
460.757	594.79068
461.064	585.24363
461.371	558.69289
461.678	566.13178
461.985	578.87566
462.292	565.06931
462.598	566.13178
462.905	562.94414
463.212	575.69069
463.518	580.99861
463.825	559.75581
464.131	568.25651
464.438	587.3657
464.744	583.12126
465.051	572.50506
465.357	591.60898
465.664	579.93717
465.97	584.18248
466.276	593.73018
466.582	569.31875
466.889	540.61148
467.195	558.69289
467.501	580.99861
467.807	576.75242
468.113	582.05997
468.419	575.69069
468.725	572.50506
469.031	557.62989
469.337	571.44303
469.642	586.3047
469.948	571.44303
470.254	569.31875
470.56	586.3047
470.865	566.13178
471.171	545.93185
471.477	588.42663
471.782	607.51107
472.088	594.79068
472.393	610.68958
472.698	589.48748
473.004	571.44303
473.309	594.79068
473.614	580.99861
473.92	572.50506
474.225	560.81866
474.53	571.44303
474.835	571.44303
475.14	580.99861
475.445	582.05997
475.75	538.48278
476.055	552.31374
476.36	604.33193
476.665	595.8511
476.97	582.05997
477.275	600.09208
477.58	576.75242
477.885	577.81408
478.189	573.56701
478.494	572.50506
478.799	558.69289
479.103	545.93185
479.408	535.28916
479.712	565.06931
480.017	587.3657
480.321	566.13178
480.625	576.75242
480.93	585.24363
481.234	575.69069
481.538	549.12314
481.843	551.25029
482.147	573.56701
482.451	578.87566
482.755	576.75242
483.059	572.50506
483.363	578.87566
483.667	545.93185
483.971	535.28916
484.275	570.38093
484.579	582.05997
484.883	590.54827
485.187	578.87566
485.49	555.50366
485.794	553.37712
486.098	555.50366
486.401	545.93185
486.705	553.37712
487.009	567.19418
487.312	580.99861
487.616	597.97173
487.919	562.94414
488.222	535.28916
488.526	549.12314
488.829	541.6757
489.132	529.96488
489.436	545.93185
489.739	561.88144
490.042	573.56701
490.345	600.09208
490.648	604.33193
490.951	582.05997
491.254	570.38093
491.557	591.60898
491.86	566.13178
492.163	568.25651
492.466	588.42663
492.769	578.87566
493.072	562.94414
493.375	565.06931
493.677	588.42663
493.98	593.73018
494.283	590.54827
494.585	567.19418
494.888	573.56701
495.19	570.38093
495.493	567.19418
495.795	570.38093
496.098	589.48748
496.4	608.57064
496.702	606.45143
497.005	593.73018
497.307	621.28009
497.609	594.79068
497.911	534.22446
498.213	554.44043
498.515	587.3657
498.818	593.73018
499.12	556.56681
499.422	558.69289
499.723	585.24363
500.025	608.57064
500.327	570.38093
500.629	550.18675
500.931	582.05997
501.233	571.44303
501.534	565.06931
501.836	591.60898
502.138	600.09208
502.439	592.66961
502.741	594.79068
503.042	609.63015
503.344	597.97173
503.645	606.45143
503.947	609.63015
504.248	597.97173
504.55	601.15215
504.851	588.42663
505.152	586.3047
505.453	582.05997
505.755	620.22135
506.056	596.91145
506.357	554.44043
506.658	567.19418
506.959	550.18675
507.26	555.50366
507.561	560.81866
507.862	540.61148
508.163	551.25029
508.464	570.38093
508.764	553.37712
509.065	536.35378
509.366	571.44303
509.667	606.45143
509.967	572.50506
510.268	539.54717
510.569	579.93717
510.869	583.12126
511.17	590.54827
511.47	587.3657
511.771	537.41832
512.071	531.0299
512.371	545.93185
512.672	579.93717
512.972	575.69069
513.272	556.56681
513.573	564.00676
513.873	571.44303
514.173	583.12126
514.473	604.33193
514.773	607.51107
515.073	584.18248
515.373	562.94414
515.673	555.50366
515.973	557.62989
516.273	573.56701
516.573	601.15215
516.873	608.57064
517.172	594.79068
517.472	605.39171
517.772	585.24363
518.072	569.31875
518.371	579.93717
518.671	573.56701
518.97	561.88144
519.27	566.13178
519.569	592.66961
519.869	600.09208
520.168	572.50506
520.468	572.50506
520.767	578.87566
521.066	558.69289
521.366	539.54717
521.665	543.80393
521.964	566.13178
522.263	573.56701
522.562	569.31875
522.861	548.05945
523.161	564.00676
523.46	546.99569
523.759	554.44043
524.057	593.73018
524.356	585.24363
524.655	584.18248
524.954	580.99861
525.253	584.18248
525.552	625.51436
525.85	611.74894
526.149	577.81408
526.448	599.03194
526.746	578.87566
527.045	565.06931
527.344	614.92662
527.642	639.26825
527.941	610.68958
528.239	576.75242
528.537	568.25651
528.836	569.31875
529.134	572.50506
529.432	587.3657
529.731	599.03194
530.029	608.57064
530.327	599.03194
530.625	573.56701
530.923	571.44303
531.221	574.62889
531.52	583.12126
531.818	570.38093
532.116	566.13178
532.413	592.66961
532.711	576.75242
533.009	566.13178
533.307	583.12126
533.605	593.73018
533.903	575.69069
534.2	572.50506
534.498	578.87566
534.796	590.54827
535.093	609.63015
535.391	576.75242
535.689	555.50366
535.986	585.24363
536.284	577.81408
536.581	583.12126
536.878	610.68958
537.176	596.91145
537.473	589.48748
537.77	592.66961
538.068	588.42663
538.365	588.42663
538.662	607.51107
538.959	601.15215
539.256	561.88144
539.554	562.94414
