Data from dark_beginning_ST026791__148__1246.txt Node

Date: Mon Aug 18 22:10:53 AEST 2025
User: mathewyoussef
Spectrometer: ST02679
Trigger mode: 0
Integration Time (sec): 6.653700E-1
Scans to average: 1
Nonlinearity correction enabled: true
Boxcar width: 0
Storing dark spectrum: false
XAxis mode: Wavelengths
Number of Pixels in Spectrum: 1516
>>>>>Begin Spectral Data<<<<<
187.304	576.75242
187.653	586.3047
188.002	580.99861
188.351	540.61148
188.7	553.37712
189.048	559.75581
189.397	580.99861
189.746	606.45143
190.094	587.3657
190.443	557.62989
190.791	555.50366
191.14	588.42663
191.488	582.05997
191.837	589.48748
192.185	584.18248
192.533	562.94414
192.881	589.48748
193.229	560.81866
193.577	555.50366
193.925	575.69069
194.273	591.60898
194.621	604.33193
194.969	555.50366
195.317	537.41832
195.664	554.44043
196.012	574.62889
196.359	606.45143
196.707	603.27207
197.054	569.31875
197.402	548.05945
197.749	556.56681
198.096	584.18248
198.443	575.69069
198.791	572.50506
199.138	572.50506
199.485	558.69289
199.832	588.42663
200.179	605.39171
200.525	584.18248
200.872	555.50366
201.219	564.00676
201.566	579.93717
201.912	589.48748
202.259	580.99861
202.605	562.94414
202.952	595.8511
203.298	610.68958
203.644	595.8511
203.991	573.56701
204.337	562.94414
204.683	560.81866
205.029	576.75242
205.375	572.50506
205.721	575.69069
206.067	611.74894
206.413	610.68958
206.759	593.73018
207.104	564.00676
207.45	587.3657
207.796	597.97173
208.141	577.81408
208.487	572.50506
208.832	567.19418
209.177	573.56701
209.523	585.24363
209.868	591.60898
210.213	558.69289
210.558	536.35378
210.903	564.00676
211.248	591.60898
211.593	593.73018
211.938	603.27207
212.283	601.15215
212.628	568.25651
212.973	544.86793
213.317	556.56681
213.662	576.75242
214.007	565.06931
214.351	539.54717
214.696	541.6757
215.04	574.62889
215.384	594.79068
215.729	566.13178
216.073	548.05945
216.417	584.18248
216.761	587.3657
217.105	586.3047
217.449	612.80824
217.793	601.15215
218.137	588.42663
218.481	596.91145
218.824	607.51107
219.168	619.16254
219.512	612.80824
219.855	562.94414
220.199	555.50366
220.542	575.69069
220.886	577.81408
221.229	586.3047
221.572	572.50506
221.916	554.44043
222.259	570.38093
222.602	595.8511
222.945	573.56701
223.288	555.50366
223.631	573.56701
223.974	582.05997
224.317	565.06931
224.659	539.54717
225.002	549.12314
225.345	580.99861
225.687	597.97173
226.03	591.60898
226.372	559.75581
226.715	554.44043
227.057	562.94414
227.4	582.05997
227.742	604.33193
228.084	585.24363
228.426	565.06931
228.768	580.99861
229.11	594.79068
229.452	583.12126
229.794	577.81408
230.136	540.61148
230.478	542.73986
230.82	576.75242
231.161	586.3047
231.503	622.33876
231.845	607.51107
232.186	607.51107
232.528	610.68958
232.869	572.50506
233.21	567.19418
233.552	559.75581
233.893	566.13178
234.234	576.75242
234.575	584.18248
234.916	590.54827
235.257	588.42663
235.598	600.09208
235.939	602.21215
236.28	572.50506
236.621	553.37712
236.961	567.19418
237.302	608.57064
237.643	591.60898
237.983	566.13178
238.324	601.15215
238.664	596.91145
239.005	604.33193
239.345	592.66961
239.685	561.88144
240.025	584.18248
240.366	577.81408
240.706	577.81408
241.046	577.81408
241.386	559.75581
241.726	552.31374
242.066	542.73986
242.405	572.50506
242.745	569.31875
243.085	555.50366
243.425	561.88144
243.764	591.60898
244.104	642.44061
244.443	617.04472
244.783	553.37712
245.122	564.00676
245.461	594.79068
245.801	593.73018
246.14	597.97173
246.479	599.03194
246.818	573.56701
247.157	579.93717
247.496	593.73018
247.835	569.31875
248.174	561.88144
248.513	572.50506
248.852	612.80824
249.19	599.03194
249.529	557.62989
249.868	574.62889
250.206	575.69069
250.545	573.56701
250.883	585.24363
251.221	592.66961
251.56	579.93717
251.898	565.06931
252.236	579.93717
252.574	590.54827
252.912	579.93717
253.25	559.75581
253.588	567.19418
253.926	558.69289
254.264	545.93185
254.602	555.50366
254.94	557.62989
255.278	573.56701
255.615	570.38093
255.953	566.13178
256.29	595.8511
256.628	608.57064
256.965	555.50366
257.303	548.05945
257.64	596.91145
257.977	594.79068
258.314	562.94414
258.652	551.25029
258.989	564.00676
259.326	569.31875
259.663	586.3047
260	587.3657
260.337	548.05945
260.673	551.25029
261.01	556.56681
261.347	535.28916
261.684	562.94414
262.02	586.3047
262.357	570.38093
262.693	565.06931
263.03	593.73018
263.366	564.00676
263.702	551.25029
264.039	566.13178
264.375	543.80393
264.711	555.50366
265.047	587.3657
265.383	618.10366
265.719	587.3657
266.055	558.69289
266.391	605.39171
266.727	601.15215
267.063	578.87566
267.399	579.93717
267.734	582.05997
268.07	561.88144
268.405	539.54717
268.741	558.69289
269.076	576.75242
269.412	576.75242
269.747	572.50506
270.082	565.06931
270.418	554.44043
270.753	577.81408
271.088	589.48748
271.423	593.73018
271.758	574.62889
272.093	572.50506
272.428	576.75242
272.763	580.99861
273.098	605.39171
273.433	572.50506
273.767	576.75242
274.102	575.69069
274.436	565.06931
274.771	568.25651
275.106	560.81866
275.44	577.81408
275.774	558.69289
276.109	553.37712
276.443	559.75581
276.777	557.62989
277.111	569.31875
277.445	560.81866
277.78	568.25651
278.114	589.48748
278.447	596.91145
278.781	580.99861
279.115	565.06931
279.449	568.25651
279.783	570.38093
280.116	567.19418
280.45	549.12314
280.784	560.81866
281.117	579.93717
281.451	564.00676
281.784	597.97173
282.117	621.28009
282.451	576.75242
282.784	554.44043
283.117	550.18675
283.45	554.44043
283.783	548.05945
284.116	560.81866
284.449	594.79068
284.782	617.04472
285.115	617.04472
285.448	591.60898
285.781	566.13178
286.114	545.93185
286.446	562.94414
286.779	592.66961
287.111	590.54827
287.444	574.62889
287.776	571.44303
288.109	585.24363
288.441	583.12126
288.773	553.37712
289.106	575.69069
289.438	595.8511
289.77	574.62889
290.102	569.31875
290.434	577.81408
290.766	621.28009
291.098	611.74894
291.43	561.88144
291.762	567.19418
292.094	584.18248
292.425	577.81408
292.757	566.13178
293.089	574.62889
293.42	577.81408
293.752	568.25651
294.083	546.99569
294.414	567.19418
294.746	592.66961
295.077	578.87566
295.408	588.42663
295.74	606.45143
296.071	596.91145
296.402	572.50506
296.733	571.44303
297.064	575.69069
297.395	583.12126
297.726	561.88144
298.056	571.44303
298.387	584.18248
298.718	596.91145
299.049	621.28009
299.379	580.99861
299.71	571.44303
300.04	566.13178
300.371	557.62989
300.701	545.93185
301.031	556.56681
301.362	596.91145
301.692	605.39171
302.022	585.24363
302.352	539.54717
302.682	545.93185
303.012	561.88144
303.342	577.81408
303.672	606.45143
304.002	580.99861
304.332	569.31875
304.662	574.62889
304.992	565.06931
305.321	583.12126
305.651	593.73018
305.98	597.97173
306.31	597.97173
306.639	577.81408
306.969	577.81408
307.298	565.06931
307.628	569.31875
307.957	591.60898
308.286	579.93717
308.615	580.99861
308.944	577.81408
309.273	559.75581
309.602	571.44303
309.931	593.73018
310.26	592.66961
310.589	584.18248
310.918	566.13178
311.247	573.56701
311.575	579.93717
311.904	580.99861
312.233	591.60898
312.561	572.50506
312.89	574.62889
313.218	585.24363
313.546	577.81408
313.875	565.06931
314.203	555.50366
314.531	595.8511
314.859	604.33193
315.188	556.56681
315.516	569.31875
315.844	593.73018
316.172	594.79068
316.5	594.79068
316.827	583.12126
317.155	611.74894
317.483	595.8511
317.811	537.41832
318.138	545.93185
318.466	548.05945
318.794	554.44043
319.121	557.62989
319.449	554.44043
319.776	558.69289
320.103	566.13178
320.431	594.79068
320.758	595.8511
321.085	584.18248
321.412	575.69069
321.739	578.87566
322.066	560.81866
322.393	550.18675
322.72	566.13178
323.047	569.31875
323.374	602.21215
323.701	597.97173
324.028	567.19418
324.354	558.69289
324.681	558.69289
325.008	610.68958
325.334	575.69069
325.661	543.80393
325.987	576.75242
326.314	553.37712
326.64	553.37712
326.966	560.81866
327.293	546.99569
327.619	566.13178
327.945	570.38093
328.271	588.42663
328.597	600.09208
328.923	564.00676
329.249	569.31875
329.575	588.42663
329.901	565.06931
330.227	568.25651
330.552	611.74894
330.878	602.21215
331.204	567.19418
331.529	574.62889
331.855	601.15215
332.18	591.60898
332.506	594.79068
332.831	594.79068
333.156	586.3047
333.482	579.93717
333.807	570.38093
334.132	568.25651
334.457	550.18675
334.782	538.48278
335.107	566.13178
335.432	577.81408
335.757	556.56681
336.082	553.37712
336.407	533.15969
336.732	537.41832
337.057	585.24363
337.381	591.60898
337.706	572.50506
338.031	565.06931
338.355	553.37712
338.68	559.75581
339.004	573.56701
339.329	577.81408
339.653	561.88144
339.977	565.06931
340.301	589.48748
340.626	593.73018
340.95	564.00676
341.274	543.80393
341.598	564.00676
341.922	570.38093
342.246	558.69289
342.57	570.38093
342.894	582.05997
343.218	585.24363
343.541	589.48748
343.865	552.31374
344.189	558.69289
344.512	588.42663
344.836	588.42663
345.159	556.56681
345.483	565.06931
345.806	609.63015
346.13	584.18248
346.453	554.44043
346.776	569.31875
347.099	583.12126
347.423	582.05997
347.746	564.00676
348.069	572.50506
348.392	597.97173
348.715	601.15215
349.038	606.45143
349.361	594.79068
349.683	559.75581
350.006	554.44043
350.329	566.13178
350.652	559.75581
350.974	548.05945
351.297	548.05945
351.619	572.50506
351.942	578.87566
352.264	567.19418
352.587	556.56681
352.909	559.75581
353.231	557.62989
353.554	555.50366
353.876	570.38093
354.198	561.88144
354.52	577.81408
354.842	584.18248
355.164	588.42663
355.486	607.51107
355.808	588.42663
356.13	594.79068
356.452	637.15301
356.773	599.03194
357.095	566.13178
357.417	596.91145
357.738	552.31374
358.06	556.56681
358.381	577.81408
358.703	554.44043
359.024	557.62989
359.346	561.88144
359.667	559.75581
359.988	576.75242
360.309	573.56701
360.631	580.99861
360.952	593.73018
361.273	567.19418
361.594	571.44303
361.915	559.75581
362.236	566.13178
362.557	585.24363
362.878	561.88144
363.198	567.19418
363.519	583.12126
363.84	583.12126
364.16	577.81408
364.481	565.06931
364.802	565.06931
365.122	594.79068
365.443	611.74894
365.763	592.66961
366.083	578.87566
366.404	579.93717
366.724	590.54827
367.044	584.18248
367.364	601.15215
367.685	586.3047
368.005	562.94414
368.325	580.99861
368.645	565.06931
368.965	558.69289
369.284	564.00676
369.604	592.66961
369.924	612.80824
370.244	615.9857
370.564	586.3047
370.883	567.19418
371.203	582.05997
371.522	573.56701
371.842	606.45143
372.161	622.33876
372.481	573.56701
372.8	570.38093
373.119	590.54827
373.439	591.60898
373.758	580.99861
374.077	592.66961
374.396	584.18248
374.715	550.18675
375.034	555.50366
375.353	566.13178
375.672	587.3657
375.991	590.54827
376.31	553.37712
376.629	553.37712
376.948	593.73018
377.266	564.00676
377.585	569.31875
377.904	589.48748
378.222	557.62989
378.541	554.44043
378.859	553.37712
379.178	541.6757
379.496	575.69069
379.814	600.09208
380.133	579.93717
380.451	587.3657
380.769	572.50506
381.087	540.61148
381.405	545.93185
381.723	559.75581
382.041	574.62889
382.359	580.99861
382.677	573.56701
382.995	576.75242
383.313	577.81408
383.631	580.99861
383.949	589.48748
384.266	579.93717
384.584	558.69289
384.901	548.05945
385.219	535.28916
385.537	559.75581
385.854	588.42663
386.171	571.44303
386.489	572.50506
386.806	596.91145
387.123	612.80824
387.441	613.86746
387.758	593.73018
388.075	571.44303
388.392	564.00676
388.709	557.62989
389.026	574.62889
389.343	607.51107
389.66	615.9857
389.977	607.51107
390.294	565.06931
390.61	538.48278
390.927	583.12126
391.244	574.62889
391.56	567.19418
391.877	580.99861
392.193	564.00676
392.51	584.18248
392.826	585.24363
393.143	576.75242
393.459	580.99861
393.775	541.6757
394.092	538.48278
394.408	574.62889
394.724	583.12126
395.04	551.25029
395.356	537.41832
395.672	573.56701
395.988	576.75242
396.304	576.75242
396.62	597.97173
396.936	596.91145
397.252	570.38093
397.567	571.44303
397.883	577.81408
398.199	564.00676
398.514	550.18675
398.83	559.75581
399.146	591.60898
399.461	601.15215
399.777	591.60898
400.092	570.38093
400.407	568.25651
400.723	588.42663
401.038	588.42663
401.353	566.13178
401.668	561.88144
401.983	576.75242
402.298	592.66961
402.613	587.3657
402.928	564.00676
403.243	548.05945
403.558	570.38093
403.873	561.88144
404.188	546.99569
404.503	541.6757
404.817	526.76937
405.132	557.62989
405.447	557.62989
405.761	574.62889
406.076	613.86746
406.39	604.33193
406.705	586.3047
407.019	571.44303
407.334	579.93717
407.648	588.42663
407.962	575.69069
408.276	578.87566
408.591	604.33193
408.905	583.12126
409.219	579.93717
409.533	605.39171
409.847	595.8511
410.161	584.18248
410.475	573.56701
410.789	571.44303
411.102	587.3657
411.416	602.21215
411.73	593.73018
412.044	605.39171
412.357	610.68958
412.671	592.66961
412.984	568.25651
413.298	590.54827
413.611	622.33876
413.925	605.39171
414.238	585.24363
414.552	571.44303
414.865	555.50366
415.178	567.19418
415.491	592.66961
415.804	578.87566
416.118	557.62989
416.431	558.69289
416.744	582.05997
417.057	575.69069
417.37	556.56681
417.683	567.19418
417.995	580.99861
418.308	589.48748
418.621	565.06931
418.934	565.06931
419.246	582.05997
419.559	567.19418
419.872	542.73986
420.184	545.93185
420.497	560.81866
420.809	551.25029
421.121	560.81866
421.434	568.25651
421.746	578.87566
422.058	574.62889
422.371	566.13178
422.683	561.88144
422.995	570.38093
423.307	572.50506
423.619	574.62889
423.931	573.56701
424.243	561.88144
424.555	568.25651
424.867	585.24363
425.179	627.63109
425.491	613.86746
425.802	603.27207
426.114	594.79068
426.426	575.69069
426.737	564.00676
427.049	549.12314
427.361	568.25651
427.672	562.94414
427.984	555.50366
428.295	593.73018
428.606	577.81408
428.918	555.50366
429.229	628.68935
429.54	614.92662
429.851	568.25651
430.163	588.42663
430.474	582.05997
430.785	591.60898
431.096	585.24363
431.407	590.54827
431.718	582.05997
432.029	551.25029
432.339	556.56681
432.65	587.3657
432.961	601.15215
433.272	574.62889
433.582	570.38093
433.893	569.31875
434.204	549.12314
434.514	557.62989
434.825	568.25651
435.135	544.86793
435.446	572.50506
435.756	579.93717
436.066	525.70404
436.377	561.88144
436.687	607.51107
436.997	573.56701
437.307	566.13178
437.617	569.31875
437.927	550.18675
438.237	541.6757
438.547	569.31875
438.857	583.12126
439.167	566.13178
439.477	553.37712
439.787	573.56701
440.097	586.3047
440.407	560.81866
440.716	559.75581
441.026	591.60898
441.336	593.73018
441.645	580.99861
441.955	562.94414
442.264	551.25029
442.574	570.38093
442.883	584.18248
443.192	587.3657
443.502	576.75242
443.811	611.74894
444.12	630.80567
444.429	589.48748
444.739	566.13178
445.048	591.60898
445.357	596.91145
445.666	565.06931
445.975	583.12126
446.284	575.69069
446.593	558.69289
446.901	574.62889
447.21	561.88144
447.519	567.19418
447.828	614.92662
448.136	593.73018
448.445	574.62889
448.754	606.45143
449.062	583.12126
449.371	562.94414
449.679	549.12314
449.988	546.99569
450.296	564.00676
450.605	558.69289
450.913	584.18248
451.221	638.21066
451.529	625.51436
451.838	579.93717
452.146	588.42663
452.454	594.79068
452.762	590.54827
453.07	578.87566
453.378	580.99861
453.686	595.8511
453.994	596.91145
454.302	599.03194
454.609	573.56701
454.917	565.06931
455.225	568.25651
455.533	571.44303
455.84	589.48748
456.148	596.91145
456.455	612.80824
456.763	621.28009
457.07	617.04472
457.378	594.79068
457.685	594.79068
457.993	595.8511
458.3	562.94414
458.607	544.86793
458.915	567.19418
459.222	591.60898
459.529	573.56701
459.836	554.44043
460.143	554.44043
460.45	569.31875
460.757	555.50366
461.064	553.37712
461.371	582.05997
461.678	600.09208
461.985	585.24363
462.292	571.44303
462.598	579.93717
462.905	580.99861
463.212	578.87566
463.518	584.18248
463.825	564.00676
464.131	572.50506
464.438	610.68958
464.744	596.91145
465.051	551.25029
465.357	557.62989
465.664	588.42663
465.97	570.38093
466.276	560.81866
466.582	599.03194
466.889	586.3047
467.195	550.18675
467.501	558.69289
467.807	593.73018
468.113	585.24363
468.419	572.50506
468.725	597.97173
469.031	565.06931
469.337	615.9857
469.642	640.32577
469.948	586.3047
470.254	590.54827
470.56	584.18248
470.865	536.35378
471.171	537.41832
471.477	564.00676
471.782	545.93185
472.088	519.31038
472.393	566.13178
472.698	594.79068
473.004	550.18675
473.309	586.3047
473.614	613.86746
473.92	568.25651
474.225	564.00676
474.53	585.24363
474.835	578.87566
475.14	579.93717
475.445	589.48748
475.75	589.48748
476.055	583.12126
476.36	575.69069
476.665	580.99861
476.97	621.28009
477.275	644.55518
477.58	585.24363
477.885	594.79068
478.189	621.28009
478.494	584.18248
478.799	589.48748
479.103	573.56701
479.408	570.38093
479.712	567.19418
480.017	554.44043
480.321	557.62989
480.625	551.25029
480.93	565.06931
481.234	556.56681
481.538	576.75242
481.843	608.57064
482.147	593.73018
482.451	562.94414
482.755	578.87566
483.059	585.24363
483.363	538.48278
483.667	536.35378
483.971	552.31374
484.275	553.37712
484.579	565.06931
484.883	578.87566
485.187	592.66961
485.49	594.79068
485.794	582.05997
486.098	557.62989
486.401	553.37712
486.705	564.00676
487.009	593.73018
487.312	612.80824
487.616	591.60898
487.919	562.94414
488.222	558.69289
488.526	579.93717
488.829	622.33876
489.132	617.04472
489.436	559.75581
489.739	542.73986
490.042	544.86793
490.345	570.38093
490.648	573.56701
490.951	570.38093
491.254	603.27207
491.557	583.12126
491.86	559.75581
492.163	570.38093
492.466	577.81408
492.769	592.66961
493.072	602.21215
493.375	600.09208
493.677	608.57064
493.98	613.86746
494.283	580.99861
494.585	553.37712
494.888	595.8511
495.19	613.86746
495.493	595.8511
495.795	589.48748
496.098	590.54827
496.4	592.66961
496.702	562.94414
497.005	567.19418
497.307	614.92662
497.609	606.45143
497.911	576.75242
498.213	569.31875
498.515	582.05997
498.818	603.27207
499.12	612.80824
499.422	609.63015
499.723	583.12126
500.025	588.42663
500.327	593.73018
500.629	589.48748
500.931	565.06931
501.233	540.61148
501.534	561.88144
501.836	580.99861
502.138	580.99861
502.439	584.18248
502.741	570.38093
503.042	584.18248
503.344	594.79068
503.645	603.27207
503.947	615.9857
504.248	584.18248
504.55	561.88144
504.851	564.00676
505.152	572.50506
505.453	580.99861
505.755	579.93717
506.056	569.31875
506.357	593.73018
506.658	593.73018
506.959	570.38093
507.26	599.03194
507.561	608.57064
507.862	570.38093
508.163	553.37712
508.464	568.25651
508.764	594.79068
509.065	577.81408
509.366	609.63015
509.667	622.33876
509.967	558.69289
510.268	568.25651
510.569	591.60898
510.869	571.44303
511.17	549.12314
511.47	553.37712
511.771	576.75242
512.071	566.13178
512.371	549.12314
512.672	560.81866
512.972	568.25651
513.272	575.69069
513.573	568.25651
513.873	570.38093
514.173	561.88144
514.473	566.13178
514.773	592.66961
515.073	600.09208
515.373	594.79068
515.673	571.44303
515.973	554.44043
516.273	578.87566
516.573	586.3047
516.873	569.31875
517.172	568.25651
517.472	574.62889
517.772	574.62889
518.072	567.19418
518.371	569.31875
518.671	597.97173
518.97	604.33193
519.27	611.74894
519.569	621.28009
519.869	573.56701
520.168	569.31875
520.468	564.00676
520.767	542.73986
521.066	565.06931
521.366	582.05997
521.665	580.99861
521.964	580.99861
522.263	580.99861
522.562	604.33193
522.861	610.68958
523.161	586.3047
523.46	564.00676
523.759	570.38093
524.057	579.93717
524.356	594.79068
524.655	565.06931
524.954	533.15969
525.253	589.48748
525.552	597.97173
525.85	569.31875
526.149	573.56701
526.448	576.75242
526.746	568.25651
527.045	562.94414
527.344	606.45143
527.642	635.0375
527.941	617.04472
528.239	629.74755
528.537	607.51107
528.836	576.75242
529.134	582.05997
529.432	571.44303
529.731	566.13178
530.029	565.06931
530.327	580.99861
530.625	596.91145
530.923	575.69069
531.221	569.31875
531.52	574.62889
531.818	573.56701
532.116	577.81408
532.413	590.54827
532.711	601.15215
533.009	604.33193
533.307	573.56701
533.605	570.38093
533.903	600.09208
534.2	570.38093
534.498	558.69289
534.796	572.50506
535.093	579.93717
535.391	579.93717
535.689	576.75242
535.986	562.94414
536.284	569.31875
536.581	585.24363
536.878	607.51107
537.176	620.22135
537.473	607.51107
537.77	604.33193
538.068	589.48748
538.365	585.24363
538.662	593.73018
538.959	585.24363
539.256	583.12126
539.554	595.8511
