Data from dark_beginning_ST026791__147__1245.txt Node

Date: Mon Aug 18 22:10:51 AEST 2025
User: mathewyoussef
Spectrometer: ST02679
Trigger mode: 0
Integration Time (sec): 6.653700E-1
Scans to average: 1
Nonlinearity correction enabled: true
Boxcar width: 0
Storing dark spectrum: false
XAxis mode: Wavelengths
Number of Pixels in Spectrum: 1516
>>>>>Begin Spectral Data<<<<<
187.304	587.3657
187.653	569.31875
188.002	573.56701
188.351	557.62989
188.7	554.44043
189.048	562.94414
189.397	579.93717
189.746	580.99861
190.094	579.93717
190.443	585.24363
190.791	573.56701
191.14	567.19418
191.488	578.87566
191.837	574.62889
192.185	578.87566
192.533	582.05997
192.881	582.05997
193.229	589.48748
193.577	610.68958
193.925	604.33193
194.273	590.54827
194.621	605.39171
194.969	579.93717
195.317	556.56681
195.664	583.12126
196.012	585.24363
196.359	567.19418
196.707	559.75581
197.054	559.75581
197.402	570.38093
197.749	574.62889
198.096	584.18248
198.443	567.19418
198.791	568.25651
199.138	565.06931
199.485	572.50506
199.832	591.60898
200.179	578.87566
200.525	556.56681
200.872	561.88144
201.219	573.56701
201.566	578.87566
201.912	586.3047
202.259	555.50366
202.605	552.31374
202.952	573.56701
203.298	551.25029
203.644	553.37712
203.991	568.25651
204.337	570.38093
204.683	556.56681
205.029	554.44043
205.375	558.69289
205.721	569.31875
206.067	604.33193
206.413	595.8511
206.759	567.19418
207.104	560.81866
207.45	556.56681
207.796	549.12314
208.141	553.37712
208.487	567.19418
208.832	564.00676
209.177	571.44303
209.523	582.05997
209.868	556.56681
210.213	577.81408
210.558	594.79068
210.903	597.97173
211.248	575.69069
211.593	576.75242
211.938	594.79068
212.283	593.73018
212.628	576.75242
212.973	548.05945
213.317	566.13178
213.662	580.99861
214.007	568.25651
214.351	548.05945
214.696	549.12314
215.04	560.81866
215.384	590.54827
215.729	565.06931
216.073	540.61148
216.417	571.44303
216.761	571.44303
217.105	592.66961
217.449	576.75242
217.793	548.05945
218.137	558.69289
218.481	567.19418
218.824	583.12126
219.168	576.75242
219.512	591.60898
219.855	599.03194
220.199	589.48748
220.542	587.3657
220.886	582.05997
221.229	568.25651
221.572	560.81866
221.916	572.50506
222.259	564.00676
222.602	555.50366
222.945	549.12314
223.288	553.37712
223.631	554.44043
223.974	577.81408
224.317	605.39171
224.659	579.93717
225.002	577.81408
225.345	593.73018
225.687	567.19418
226.03	584.18248
226.372	589.48748
226.715	558.69289
227.057	562.94414
227.4	574.62889
227.742	599.03194
228.084	582.05997
228.426	588.42663
228.768	604.33193
229.11	572.50506
229.452	574.62889
229.794	568.25651
230.136	556.56681
230.478	567.19418
230.82	583.12126
231.161	579.93717
231.503	592.66961
231.845	590.54827
232.186	584.18248
232.528	574.62889
232.869	557.62989
233.21	566.13178
233.552	560.81866
233.893	558.69289
234.234	576.75242
234.575	586.3047
234.916	584.18248
235.257	584.18248
235.598	596.91145
235.939	587.3657
236.28	564.00676
236.621	582.05997
236.961	592.66961
237.302	587.3657
237.643	551.25029
237.983	537.41832
238.324	545.93185
238.664	576.75242
239.005	594.79068
239.345	583.12126
239.685	590.54827
240.025	587.3657
240.366	588.42663
240.706	579.93717
241.046	576.75242
241.386	557.62989
241.726	540.61148
242.066	569.31875
242.405	568.25651
242.745	576.75242
243.085	602.21215
243.425	608.57064
243.764	585.24363
244.104	625.51436
244.443	635.0375
244.783	570.38093
245.122	569.31875
245.461	566.13178
245.801	583.12126
246.14	578.87566
246.479	559.75581
246.818	569.31875
247.157	578.87566
247.496	613.86746
247.835	575.69069
248.174	546.99569
248.513	579.93717
248.852	602.21215
249.19	600.09208
249.529	579.93717
249.868	575.69069
250.206	582.05997
250.545	601.15215
250.883	584.18248
251.221	572.50506
251.56	595.8511
251.898	549.12314
252.236	529.96488
252.574	572.50506
252.912	569.31875
253.25	543.80393
253.588	540.61148
253.926	573.56701
254.264	590.54827
254.602	597.97173
254.94	568.25651
255.278	544.86793
255.615	550.18675
255.953	557.62989
256.29	565.06931
256.628	553.37712
256.965	548.05945
257.303	583.12126
257.64	593.73018
257.977	570.38093
258.314	572.50506
258.652	580.99861
258.989	584.18248
259.326	590.54827
259.663	578.87566
260	568.25651
260.337	559.75581
260.673	564.00676
261.01	596.91145
261.347	602.21215
261.684	578.87566
262.02	575.69069
262.357	567.19418
262.693	559.75581
263.03	574.62889
263.366	584.18248
263.702	566.13178
264.039	572.50506
264.375	584.18248
264.711	555.50366
265.047	561.88144
265.383	576.75242
265.719	578.87566
266.055	603.27207
266.391	624.4559
266.727	601.15215
267.063	580.99861
267.399	569.31875
267.734	562.94414
268.07	585.24363
268.405	584.18248
268.741	575.69069
269.076	599.03194
269.412	587.3657
269.747	575.69069
270.082	560.81866
270.418	541.6757
270.753	567.19418
271.088	572.50506
271.423	559.75581
271.758	543.80393
272.093	544.86793
272.428	571.44303
272.763	558.69289
273.098	551.25029
273.433	566.13178
273.767	593.73018
274.102	576.75242
274.436	546.99569
274.771	556.56681
275.106	550.18675
275.44	579.93717
275.774	585.24363
276.109	571.44303
276.443	569.31875
276.777	549.12314
277.111	565.06931
277.445	586.3047
277.78	564.00676
278.114	560.81866
278.447	546.99569
278.781	562.94414
279.115	576.75242
279.449	558.69289
279.783	572.50506
280.116	558.69289
280.45	532.09483
280.784	571.44303
281.117	594.79068
281.451	560.81866
281.784	613.86746
282.117	624.4559
282.451	556.56681
282.784	550.18675
283.117	599.03194
283.45	582.05997
283.783	544.86793
284.116	543.80393
284.449	560.81866
284.782	599.03194
285.115	597.97173
285.448	574.62889
285.781	552.31374
286.114	557.62989
286.446	582.05997
286.779	601.15215
287.111	592.66961
287.444	542.73986
287.776	526.76937
288.109	568.25651
288.441	566.13178
288.773	545.93185
289.106	579.93717
289.438	575.69069
289.77	558.69289
290.102	559.75581
290.434	552.31374
290.766	610.68958
291.098	602.21215
291.43	553.37712
291.762	570.38093
292.094	571.44303
292.425	569.31875
292.757	583.12126
293.089	568.25651
293.42	560.81866
293.752	580.99861
294.083	565.06931
294.414	555.50366
294.746	577.81408
295.077	540.61148
295.408	531.0299
295.74	590.54827
296.071	592.66961
296.402	591.60898
296.733	558.69289
297.064	548.05945
297.395	572.50506
297.726	564.00676
298.056	579.93717
298.387	564.00676
298.718	567.19418
299.049	577.81408
299.379	566.13178
299.71	574.62889
300.04	551.25029
300.371	538.48278
300.701	548.05945
301.031	555.50366
301.362	578.87566
301.692	602.21215
302.022	612.80824
302.352	599.03194
302.682	560.81866
303.012	538.48278
303.342	554.44043
303.672	576.75242
304.002	588.42663
304.332	590.54827
304.662	576.75242
304.992	586.3047
305.321	613.86746
305.651	591.60898
305.98	554.44043
306.31	562.94414
306.639	587.3657
306.969	575.69069
307.298	565.06931
307.628	544.86793
307.957	534.22446
308.286	576.75242
308.615	567.19418
308.944	537.41832
309.273	542.73986
309.602	566.13178
309.931	608.57064
310.26	609.63015
310.589	579.93717
310.918	565.06931
311.247	587.3657
311.575	557.62989
311.904	554.44043
312.233	607.51107
312.561	576.75242
312.89	544.86793
313.218	575.69069
313.546	575.69069
313.875	551.25029
314.203	558.69289
314.531	592.66961
314.859	584.18248
315.188	542.73986
315.516	571.44303
315.844	590.54827
316.172	606.45143
316.5	593.73018
316.827	559.75581
317.155	578.87566
317.483	587.3657
317.811	558.69289
318.138	544.86793
318.466	566.13178
318.794	582.05997
319.121	575.69069
319.449	584.18248
319.776	585.24363
320.103	556.56681
320.431	558.69289
320.758	575.69069
321.085	571.44303
321.412	567.19418
321.739	583.12126
322.066	596.91145
322.393	580.99861
322.72	574.62889
323.047	573.56701
323.374	570.38093
323.701	561.88144
324.028	562.94414
324.354	580.99861
324.681	575.69069
325.008	576.75242
325.334	558.69289
325.661	528.89979
325.987	570.38093
326.314	589.48748
326.64	567.19418
326.966	582.05997
327.293	588.42663
327.619	591.60898
327.945	588.42663
328.271	608.57064
328.597	617.04472
328.923	592.66961
329.249	560.81866
329.575	529.96488
329.901	546.99569
330.227	579.93717
330.552	585.24363
330.878	569.31875
331.204	573.56701
331.529	588.42663
331.855	614.92662
332.18	620.22135
332.506	573.56701
332.831	567.19418
333.156	606.45143
333.482	593.73018
333.807	571.44303
334.132	583.12126
334.457	609.63015
334.782	593.73018
335.107	550.18675
335.432	538.48278
335.757	553.37712
336.082	569.31875
336.407	574.62889
336.732	590.54827
337.057	583.12126
337.381	564.00676
337.706	552.31374
338.031	558.69289
338.355	565.06931
338.68	583.12126
339.004	579.93717
339.329	550.18675
339.653	554.44043
339.977	552.31374
340.301	562.94414
340.626	582.05997
340.95	595.8511
341.274	618.10366
341.598	593.73018
341.922	561.88144
342.246	570.38093
342.57	579.93717
342.894	602.21215
343.218	588.42663
343.541	567.19418
343.865	583.12126
344.189	583.12126
344.512	556.56681
344.836	538.48278
345.159	562.94414
345.483	580.99861
345.806	576.75242
346.13	582.05997
346.453	589.48748
346.776	577.81408
347.099	580.99861
347.423	592.66961
347.746	587.3657
348.069	578.87566
348.392	592.66961
348.715	582.05997
349.038	580.99861
349.361	587.3657
349.683	575.69069
350.006	588.42663
350.329	572.50506
350.652	556.56681
350.974	562.94414
351.297	562.94414
351.619	599.03194
351.942	583.12126
352.264	536.35378
352.587	549.12314
352.909	542.73986
353.231	538.48278
353.554	553.37712
353.876	561.88144
354.198	573.56701
354.52	560.81866
354.842	545.93185
355.164	584.18248
355.486	608.57064
355.808	578.87566
356.13	557.62989
356.452	560.81866
356.773	584.18248
357.095	570.38093
357.417	553.37712
357.738	562.94414
358.06	576.75242
358.381	565.06931
358.703	551.25029
359.024	565.06931
359.346	567.19418
359.667	589.48748
359.988	607.51107
360.309	613.86746
360.631	602.21215
360.952	595.8511
361.273	575.69069
361.594	570.38093
361.915	568.25651
362.236	564.00676
362.557	579.93717
362.878	592.66961
363.198	582.05997
363.519	555.50366
363.84	557.62989
364.16	564.00676
364.481	572.50506
364.802	582.05997
365.122	567.19418
365.443	537.41832
365.763	565.06931
366.083	592.66961
366.404	583.12126
366.724	569.31875
367.044	566.13178
367.364	571.44303
367.685	551.25029
368.005	557.62989
368.325	568.25651
368.645	555.50366
368.965	566.13178
369.284	575.69069
369.604	561.88144
369.924	555.50366
370.244	585.24363
370.564	580.99861
370.883	601.15215
371.203	619.16254
371.522	571.44303
371.842	572.50506
372.161	578.87566
372.481	570.38093
372.8	556.56681
373.119	608.57064
373.439	619.16254
373.758	582.05997
374.077	592.66961
374.396	591.60898
374.715	595.8511
375.034	568.25651
375.353	560.81866
375.672	561.88144
375.991	546.99569
376.31	555.50366
376.629	571.44303
376.948	594.79068
377.266	613.86746
377.585	607.51107
377.904	607.51107
378.222	589.48748
378.541	568.25651
378.859	569.31875
379.178	571.44303
379.496	567.19418
379.814	573.56701
380.133	584.18248
380.451	585.24363
380.769	579.93717
381.087	540.61148
381.405	531.0299
381.723	549.12314
382.041	552.31374
382.359	574.62889
382.677	561.88144
382.995	551.25029
383.313	572.50506
383.631	590.54827
383.949	577.81408
384.266	573.56701
384.584	568.25651
384.901	555.50366
385.219	608.57064
385.537	600.09208
385.854	570.38093
386.171	567.19418
386.489	533.15969
386.806	557.62989
387.123	611.74894
387.441	599.03194
387.758	611.74894
388.075	610.68958
388.392	596.91145
388.709	612.80824
389.026	597.97173
389.343	565.06931
389.66	558.69289
389.977	575.69069
390.294	582.05997
390.61	608.57064
390.927	603.27207
391.244	570.38093
391.56	584.18248
391.877	586.3047
392.193	550.18675
392.51	557.62989
392.826	579.93717
393.143	566.13178
393.459	558.69289
393.775	558.69289
394.092	546.99569
394.408	541.6757
394.724	550.18675
395.04	560.81866
395.356	570.38093
395.672	601.15215
395.988	612.80824
396.304	596.91145
396.62	567.19418
396.936	533.15969
397.252	571.44303
397.567	579.93717
397.883	561.88144
398.199	567.19418
398.514	554.44043
398.83	555.50366
399.146	583.12126
399.461	609.63015
399.777	589.48748
400.092	566.13178
400.407	577.81408
400.723	570.38093
401.038	551.25029
401.353	587.3657
401.668	608.57064
401.983	589.48748
402.298	577.81408
402.613	578.87566
402.928	558.69289
403.243	555.50366
403.558	573.56701
403.873	552.31374
404.188	545.93185
404.503	580.99861
404.817	585.24363
405.132	572.50506
405.447	580.99861
405.761	610.68958
406.076	614.92662
406.39	568.25651
406.705	528.89979
407.019	556.56681
407.334	560.81866
407.648	549.12314
407.962	597.97173
408.276	606.45143
408.591	583.12126
408.905	549.12314
409.219	555.50366
409.533	597.97173
409.847	613.86746
410.161	603.27207
410.475	597.97173
410.789	595.8511
411.102	585.24363
411.416	626.57276
411.73	639.26825
412.044	590.54827
412.357	571.44303
412.671	564.00676
412.984	555.50366
413.298	550.18675
413.611	575.69069
413.925	600.09208
414.238	599.03194
414.552	605.39171
414.865	575.69069
415.178	564.00676
415.491	565.06931
415.804	594.79068
416.118	590.54827
416.431	540.61148
416.744	571.44303
417.057	612.80824
417.37	583.12126
417.683	540.61148
417.995	584.18248
418.308	601.15215
418.621	574.62889
418.934	594.79068
419.246	590.54827
419.559	594.79068
419.872	617.04472
420.184	589.48748
420.497	558.69289
420.809	556.56681
421.121	572.50506
421.434	572.50506
421.746	559.75581
422.058	542.73986
422.371	536.35378
422.683	541.6757
422.995	543.80393
423.307	555.50366
423.619	569.31875
423.931	575.69069
424.243	555.50366
424.555	572.50506
424.867	609.63015
425.179	607.51107
425.491	604.33193
425.802	578.87566
426.114	548.05945
426.426	567.19418
426.737	579.93717
427.049	588.42663
427.361	612.80824
427.672	623.39736
427.984	611.74894
428.295	585.24363
428.606	567.19418
428.918	558.69289
429.229	626.57276
429.54	636.09528
429.851	572.50506
430.163	552.31374
430.474	578.87566
430.785	605.39171
431.096	567.19418
431.407	572.50506
431.718	595.8511
432.029	594.79068
432.339	571.44303
432.65	586.3047
432.961	584.18248
433.272	562.94414
433.582	586.3047
433.893	591.60898
434.204	570.38093
434.514	518.24449
434.825	519.31038
435.135	577.81408
435.446	619.16254
435.756	600.09208
436.066	571.44303
436.377	596.91145
436.687	585.24363
436.997	571.44303
437.307	594.79068
437.617	603.27207
437.927	606.45143
438.237	587.3657
438.547	562.94414
438.857	571.44303
439.167	586.3047
439.477	585.24363
439.787	590.54827
440.097	591.60898
440.407	586.3047
440.716	579.93717
441.026	595.8511
441.336	591.60898
441.645	594.79068
441.955	597.97173
442.264	576.75242
442.574	580.99861
442.883	593.73018
443.192	599.03194
443.502	623.39736
443.811	627.63109
444.12	582.05997
444.429	590.54827
444.739	590.54827
445.048	592.66961
445.357	622.33876
445.666	621.28009
445.975	596.91145
446.284	559.75581
446.593	566.13178
446.901	588.42663
447.21	595.8511
447.519	590.54827
447.828	600.09208
448.136	584.18248
448.445	573.56701
448.754	595.8511
449.062	587.3657
449.371	576.75242
449.679	578.87566
449.988	571.44303
450.296	588.42663
450.605	608.57064
450.913	609.63015
451.221	666.74236
451.529	657.23708
451.838	577.81408
452.146	541.6757
452.454	542.73986
452.762	585.24363
453.07	599.03194
453.378	573.56701
453.686	552.31374
453.994	582.05997
454.302	580.99861
454.609	555.50366
454.917	570.38093
455.225	572.50506
455.533	560.81866
455.84	537.41832
456.148	541.6757
456.455	555.50366
456.763	555.50366
457.07	606.45143
457.378	647.72654
457.685	594.79068
457.993	541.6757
458.3	542.73986
458.607	578.87566
458.915	620.22135
459.222	615.9857
459.529	585.24363
459.836	578.87566
460.143	556.56681
460.45	539.54717
460.757	561.88144
461.064	566.13178
461.371	561.88144
461.678	554.44043
461.985	569.31875
462.292	593.73018
462.598	577.81408
462.905	587.3657
463.212	608.57064
463.518	601.15215
463.825	558.69289
464.131	569.31875
464.438	588.42663
464.744	556.56681
465.051	572.50506
465.357	582.05997
465.664	576.75242
465.97	591.60898
466.276	567.19418
466.582	553.37712
466.889	583.12126
467.195	570.38093
467.501	561.88144
467.807	569.31875
468.113	548.05945
468.419	556.56681
468.725	575.69069
469.031	571.44303
469.337	607.51107
469.642	615.9857
469.948	586.3047
470.254	603.27207
470.56	607.51107
470.865	555.50366
471.171	529.96488
471.477	553.37712
471.782	572.50506
472.088	584.18248
472.393	629.74755
472.698	610.68958
473.004	552.31374
473.309	560.81866
473.614	580.99861
473.92	590.54827
474.225	569.31875
474.53	561.88144
474.835	567.19418
475.14	559.75581
475.445	589.48748
475.75	601.15215
476.055	574.62889
476.36	593.73018
476.665	594.79068
476.97	604.33193
477.275	606.45143
477.58	582.05997
477.885	591.60898
478.189	561.88144
478.494	543.80393
478.799	546.99569
479.103	556.56681
479.408	553.37712
479.712	546.99569
480.017	584.18248
480.321	583.12126
480.625	562.94414
480.93	579.93717
481.234	571.44303
481.538	571.44303
481.843	597.97173
482.147	593.73018
482.451	578.87566
482.755	571.44303
483.059	570.38093
483.363	570.38093
483.667	568.25651
483.971	558.69289
484.275	561.88144
484.579	569.31875
484.883	585.24363
485.187	592.66961
485.49	606.45143
485.794	583.12126
486.098	568.25651
486.401	605.39171
486.705	592.66961
487.009	584.18248
487.312	577.81408
487.616	550.18675
487.919	579.93717
488.222	572.50506
488.526	558.69289
488.829	569.31875
489.132	555.50366
489.436	586.3047
489.739	582.05997
490.042	567.19418
490.345	603.27207
490.648	595.8511
490.951	556.56681
491.254	554.44043
491.557	572.50506
491.86	586.3047
492.163	567.19418
492.466	558.69289
492.769	565.06931
493.072	565.06931
493.375	561.88144
493.677	568.25651
493.98	590.54827
494.283	586.3047
494.585	559.75581
494.888	570.38093
495.19	567.19418
495.493	555.50366
495.795	583.12126
496.098	591.60898
496.4	599.03194
496.702	596.91145
497.005	576.75242
497.307	604.33193
497.609	606.45143
497.911	594.79068
498.213	594.79068
498.515	566.13178
498.818	565.06931
499.12	580.99861
499.422	579.93717
499.723	552.31374
500.025	583.12126
500.327	612.80824
500.629	575.69069
500.931	550.18675
501.233	550.18675
501.534	541.6757
501.836	551.25029
502.138	578.87566
502.439	577.81408
502.741	565.06931
503.042	559.75581
503.344	567.19418
503.645	586.3047
503.947	578.87566
504.248	556.56681
504.55	573.56701
504.851	596.91145
505.152	602.21215
505.453	573.56701
505.755	575.69069
506.056	592.66961
506.357	584.18248
506.658	558.69289
506.959	557.62989
507.26	599.03194
507.561	569.31875
507.862	554.44043
508.163	558.69289
508.464	562.94414
508.764	580.99861
509.065	573.56701
509.366	575.69069
509.667	599.03194
509.967	585.24363
510.268	551.25029
510.569	571.44303
510.869	585.24363
511.17	562.94414
511.47	548.05945
511.771	577.81408
512.071	603.27207
512.371	584.18248
512.672	576.75242
512.972	588.42663
513.272	569.31875
513.573	556.56681
513.873	570.38093
514.173	592.66961
514.473	608.57064
514.773	603.27207
515.073	611.74894
515.373	604.33193
515.673	582.05997
515.973	579.93717
516.273	574.62889
516.573	564.00676
516.873	573.56701
517.172	577.81408
517.472	569.31875
517.772	567.19418
518.072	568.25651
518.371	579.93717
518.671	586.3047
518.97	565.06931
519.27	584.18248
519.569	609.63015
519.869	597.97173
520.168	579.93717
520.468	545.93185
520.767	539.54717
521.066	545.93185
521.366	536.35378
521.665	545.93185
521.964	570.38093
522.263	584.18248
522.562	576.75242
522.861	572.50506
523.161	577.81408
523.46	566.13178
523.759	555.50366
524.057	570.38093
524.356	582.05997
524.655	570.38093
524.954	559.75581
525.253	577.81408
525.552	593.73018
525.85	608.57064
526.149	606.45143
526.448	583.12126
526.746	565.06931
527.045	539.54717
527.344	571.44303
527.642	593.73018
527.941	579.93717
528.239	558.69289
528.537	570.38093
528.836	594.79068
529.134	579.93717
529.432	578.87566
529.731	607.51107
530.029	619.16254
530.327	578.87566
530.625	554.44043
530.923	548.05945
531.221	556.56681
531.52	594.79068
531.818	566.13178
532.116	535.28916
532.413	579.93717
532.711	599.03194
533.009	593.73018
533.307	583.12126
533.605	558.69289
533.903	550.18675
534.2	566.13178
534.498	572.50506
534.796	584.18248
535.093	596.91145
535.391	580.99861
535.689	578.87566
535.986	564.00676
536.284	545.93185
536.581	568.25651
536.878	582.05997
537.176	582.05997
537.473	586.3047
537.77	576.75242
538.068	552.31374
538.365	564.00676
538.662	578.87566
538.959	545.93185
539.256	549.12314
539.554	603.27207
