Data from dark_beginning_ST026791__163__1261.txt Node

Date: Mon Aug 18 22:11:13 AEST 2025
User: mathewyoussef
Spectrometer: ST02679
Trigger mode: 0
Integration Time (sec): 6.653700E-1
Scans to average: 1
Nonlinearity correction enabled: true
Boxcar width: 0
Storing dark spectrum: false
XAxis mode: Wavelengths
Number of Pixels in Spectrum: 1516
>>>>>Begin Spectral Data<<<<<
187.304	589.48748
187.653	602.21215
188.002	592.66961
188.351	573.56701
188.7	575.69069
189.048	596.91145
189.397	615.9857
189.746	601.15215
190.094	565.06931
190.443	542.73986
190.791	543.80393
191.14	555.50366
191.488	555.50366
191.837	569.31875
192.185	561.88144
192.533	557.62989
192.881	597.97173
193.229	603.27207
193.577	578.87566
193.925	561.88144
194.273	566.13178
194.621	584.18248
194.969	570.38093
195.317	542.73986
195.664	570.38093
196.012	606.45143
196.359	597.97173
196.707	568.25651
197.054	552.31374
197.402	568.25651
197.749	567.19418
198.096	580.99861
198.443	580.99861
198.791	546.99569
199.138	557.62989
199.485	558.69289
199.832	556.56681
200.179	577.81408
200.525	546.99569
200.872	528.89979
201.219	567.19418
201.566	589.48748
201.912	591.60898
202.259	576.75242
202.605	552.31374
202.952	554.44043
203.298	558.69289
203.644	564.00676
203.991	584.18248
204.337	601.15215
204.683	575.69069
205.029	559.75581
205.375	585.24363
205.721	566.13178
206.067	548.05945
206.413	576.75242
206.759	573.56701
207.104	574.62889
207.45	595.8511
207.796	573.56701
208.141	566.13178
208.487	571.44303
208.832	593.73018
209.177	594.79068
209.523	575.69069
209.868	549.12314
210.213	544.86793
210.558	559.75581
210.903	554.44043
211.248	571.44303
211.593	561.88144
211.938	558.69289
212.283	579.93717
212.628	574.62889
212.973	554.44043
213.317	556.56681
213.662	588.42663
214.007	590.54827
214.351	560.81866
214.696	556.56681
215.04	553.37712
215.384	566.13178
215.729	584.18248
216.073	587.3657
216.417	596.91145
216.761	591.60898
217.105	577.81408
217.449	576.75242
217.793	559.75581
218.137	555.50366
218.481	561.88144
218.824	583.12126
219.168	588.42663
219.512	546.99569
219.855	544.86793
220.199	566.13178
220.542	565.06931
220.886	576.75242
221.229	583.12126
221.572	576.75242
221.916	580.99861
222.259	560.81866
222.602	525.70404
222.945	531.0299
223.288	577.81408
223.631	601.15215
223.974	583.12126
224.317	591.60898
224.659	590.54827
225.002	568.25651
225.345	558.69289
225.687	558.69289
226.03	592.66961
226.372	606.45143
226.715	574.62889
227.057	561.88144
227.4	580.99861
227.742	591.60898
228.084	583.12126
228.426	577.81408
228.768	586.3047
229.11	576.75242
229.452	574.62889
229.794	569.31875
230.136	552.31374
230.478	566.13178
230.82	569.31875
231.161	566.13178
231.503	605.39171
231.845	601.15215
232.186	583.12126
232.528	591.60898
232.869	572.50506
233.21	566.13178
233.552	571.44303
233.893	603.27207
234.234	613.86746
234.575	591.60898
234.916	569.31875
235.257	572.50506
235.598	582.05997
235.939	556.56681
236.28	561.88144
236.621	587.3657
236.961	584.18248
237.302	591.60898
237.643	599.03194
237.983	608.57064
238.324	582.05997
238.664	565.06931
239.005	569.31875
239.345	561.88144
239.685	590.54827
240.025	601.15215
240.366	577.81408
240.706	579.93717
241.046	600.09208
241.386	565.06931
241.726	562.94414
242.066	580.99861
242.405	569.31875
242.745	586.3047
243.085	596.91145
243.425	580.99861
243.764	602.21215
244.104	624.4559
244.443	604.33193
244.783	582.05997
245.122	558.69289
245.461	544.86793
245.801	562.94414
246.14	570.38093
246.479	565.06931
246.818	556.56681
247.157	591.60898
247.496	620.22135
247.835	558.69289
248.174	546.99569
248.513	577.81408
248.852	622.33876
249.19	619.16254
249.529	569.31875
249.868	585.24363
250.206	569.31875
250.545	562.94414
250.883	605.39171
251.221	602.21215
251.56	570.38093
251.898	559.75581
252.236	571.44303
252.574	553.37712
252.912	543.80393
253.25	551.25029
253.588	549.12314
253.926	582.05997
254.264	587.3657
254.602	575.69069
254.94	572.50506
255.278	557.62989
255.615	541.6757
255.953	546.99569
256.29	576.75242
256.628	584.18248
256.965	574.62889
257.303	583.12126
257.64	619.16254
257.977	619.16254
258.314	574.62889
258.652	539.54717
258.989	544.86793
259.326	562.94414
259.663	573.56701
260	588.42663
260.337	565.06931
260.673	542.73986
261.01	561.88144
261.347	575.69069
261.684	565.06931
262.02	571.44303
262.357	589.48748
262.693	560.81866
263.03	518.24449
263.366	535.28916
263.702	584.18248
264.039	582.05997
264.375	586.3047
264.711	592.66961
265.047	568.25651
265.383	568.25651
265.719	588.42663
266.055	590.54827
266.391	577.81408
266.727	584.18248
267.063	576.75242
267.399	566.13178
267.734	579.93717
268.07	577.81408
268.405	571.44303
268.741	597.97173
269.076	594.79068
269.412	546.99569
269.747	534.22446
270.082	549.12314
270.418	557.62989
270.753	566.13178
271.088	571.44303
271.423	562.94414
271.758	572.50506
272.093	583.12126
272.428	565.06931
272.763	553.37712
273.098	561.88144
273.433	566.13178
273.767	585.24363
274.102	580.99861
274.436	558.69289
274.771	587.3657
275.106	573.56701
275.44	569.31875
275.774	589.48748
276.109	573.56701
276.443	582.05997
276.777	593.73018
277.111	587.3657
277.445	591.60898
277.78	601.15215
278.114	596.91145
278.447	568.25651
278.781	544.86793
279.115	564.00676
279.449	561.88144
279.783	591.60898
280.116	588.42663
280.45	539.54717
280.784	569.31875
281.117	570.38093
281.451	556.56681
281.784	604.33193
282.117	593.73018
282.451	572.50506
282.784	600.09208
283.117	568.25651
283.45	571.44303
283.783	579.93717
284.116	553.37712
284.449	559.75581
284.782	607.51107
285.115	627.63109
285.448	591.60898
285.781	582.05997
286.114	569.31875
286.446	559.75581
286.779	570.38093
287.111	562.94414
287.444	556.56681
287.776	550.18675
288.109	585.24363
288.441	595.8511
288.773	584.18248
289.106	575.69069
289.438	545.93185
289.77	548.05945
290.102	599.03194
290.434	606.45143
290.766	604.33193
291.098	609.63015
291.43	569.31875
291.762	554.44043
292.094	557.62989
292.425	585.24363
292.757	577.81408
293.089	554.44043
293.42	544.86793
293.752	555.50366
294.083	576.75242
294.414	586.3047
294.746	592.66961
295.077	586.3047
295.408	577.81408
295.74	610.68958
296.071	609.63015
296.402	549.12314
296.733	554.44043
297.064	582.05997
297.395	551.25029
297.726	541.6757
298.056	592.66961
298.387	600.09208
298.718	576.75242
299.049	592.66961
299.379	584.18248
299.71	567.19418
300.04	595.8511
300.371	586.3047
300.701	549.12314
301.031	561.88144
301.362	559.75581
301.692	557.62989
302.022	542.73986
302.352	522.50757
302.682	536.35378
303.012	538.48278
303.342	579.93717
303.672	585.24363
304.002	576.75242
304.332	596.91145
304.662	594.79068
304.992	583.12126
305.321	574.62889
305.651	584.18248
305.98	564.00676
306.31	553.37712
306.639	582.05997
306.969	604.33193
307.298	587.3657
307.628	553.37712
307.957	548.05945
308.286	565.06931
308.615	566.13178
308.944	553.37712
309.273	561.88144
309.602	565.06931
309.931	560.81866
310.26	576.75242
310.589	565.06931
310.918	569.31875
311.247	574.62889
311.575	565.06931
311.904	595.8511
312.233	591.60898
312.561	584.18248
312.89	583.12126
313.218	593.73018
313.546	628.68935
313.875	609.63015
314.203	570.38093
314.531	548.05945
314.859	572.50506
315.188	600.09208
315.516	590.54827
315.844	559.75581
316.172	579.93717
316.5	591.60898
316.827	587.3657
317.155	601.15215
317.483	575.69069
317.811	590.54827
318.138	608.57064
318.466	592.66961
318.794	590.54827
319.121	583.12126
319.449	541.6757
319.776	531.0299
320.103	561.88144
320.431	585.24363
320.758	579.93717
321.085	578.87566
321.412	573.56701
321.739	573.56701
322.066	593.73018
322.393	576.75242
322.72	553.37712
323.047	574.62889
323.374	597.97173
323.701	575.69069
324.028	568.25651
324.354	571.44303
324.681	554.44043
325.008	559.75581
325.334	557.62989
325.661	555.50366
325.987	570.38093
326.314	569.31875
326.64	570.38093
326.966	591.60898
327.293	575.69069
327.619	557.62989
327.945	566.13178
328.271	566.13178
328.597	593.73018
328.923	609.63015
329.249	584.18248
329.575	570.38093
329.901	579.93717
330.227	608.57064
330.552	605.39171
330.878	559.75581
331.204	541.6757
331.529	556.56681
331.855	570.38093
332.18	595.8511
332.506	636.09528
332.831	601.15215
333.156	583.12126
333.482	599.03194
333.807	593.73018
334.132	583.12126
334.457	572.50506
334.782	557.62989
335.107	546.99569
335.432	550.18675
335.757	560.81866
336.082	572.50506
336.407	566.13178
336.732	566.13178
337.057	585.24363
337.381	568.25651
337.706	559.75581
338.031	580.99861
338.355	561.88144
338.68	572.50506
339.004	561.88144
339.329	549.12314
339.653	561.88144
339.977	569.31875
340.301	593.73018
340.626	576.75242
340.95	570.38093
341.274	569.31875
341.598	558.69289
341.922	587.3657
342.246	604.33193
342.57	572.50506
342.894	561.88144
343.218	564.00676
343.541	556.56681
343.865	568.25651
344.189	566.13178
344.512	570.38093
344.836	583.12126
345.159	561.88144
345.483	574.62889
345.806	605.39171
346.13	608.57064
346.453	596.91145
346.776	585.24363
347.099	561.88144
347.423	577.81408
347.746	591.60898
348.069	567.19418
348.392	573.56701
348.715	576.75242
349.038	571.44303
349.361	583.12126
349.683	605.39171
350.006	594.79068
350.329	561.88144
350.652	556.56681
350.974	556.56681
351.297	569.31875
351.619	592.66961
351.942	589.48748
352.264	566.13178
352.587	561.88144
352.909	582.05997
353.231	562.94414
353.554	571.44303
353.876	610.68958
354.198	613.86746
354.52	591.60898
354.842	585.24363
355.164	595.8511
355.486	583.12126
355.808	580.99861
356.13	576.75242
356.452	601.15215
356.773	602.21215
357.095	572.50506
357.417	565.06931
357.738	559.75581
358.06	588.42663
358.381	575.69069
358.703	571.44303
359.024	580.99861
359.346	559.75581
359.667	545.93185
359.988	569.31875
360.309	611.74894
360.631	602.21215
360.952	585.24363
361.273	552.31374
361.594	568.25651
361.915	587.3657
362.236	570.38093
362.557	565.06931
362.878	587.3657
363.198	583.12126
363.519	553.37712
363.84	566.13178
364.16	580.99861
364.481	602.21215
364.802	583.12126
365.122	587.3657
365.443	603.27207
365.763	582.05997
366.083	595.8511
366.404	572.50506
366.724	539.54717
367.044	580.99861
367.364	594.79068
367.685	560.81866
368.005	557.62989
368.325	548.05945
368.645	552.31374
368.965	549.12314
369.284	550.18675
369.604	567.19418
369.924	575.69069
370.244	599.03194
370.564	589.48748
370.883	566.13178
371.203	590.54827
371.522	601.15215
371.842	590.54827
372.161	571.44303
372.481	552.31374
372.8	570.38093
373.119	589.48748
373.439	600.09208
373.758	603.27207
374.077	582.05997
374.396	562.94414
374.715	565.06931
375.034	585.24363
375.353	615.9857
375.672	577.81408
375.991	540.61148
376.31	549.12314
376.629	570.38093
376.948	591.60898
377.266	588.42663
377.585	605.39171
377.904	592.66961
378.222	556.56681
378.541	577.81408
378.859	587.3657
379.178	597.97173
379.496	614.92662
379.814	593.73018
380.133	590.54827
380.451	600.09208
380.769	570.38093
381.087	573.56701
381.405	589.48748
381.723	575.69069
382.041	578.87566
382.359	587.3657
382.677	597.97173
382.995	584.18248
383.313	544.86793
383.631	538.48278
383.949	558.69289
384.266	556.56681
384.584	558.69289
384.901	588.42663
385.219	587.3657
385.537	562.94414
385.854	568.25651
386.171	582.05997
386.489	583.12126
386.806	584.18248
387.123	582.05997
387.441	585.24363
387.758	594.79068
388.075	555.50366
388.392	536.35378
388.709	580.99861
389.026	595.8511
389.343	567.19418
389.66	559.75581
389.977	583.12126
390.294	575.69069
390.61	562.94414
390.927	566.13178
391.244	544.86793
391.56	568.25651
391.877	591.60898
392.193	568.25651
392.51	542.73986
392.826	576.75242
393.143	579.93717
393.459	537.41832
393.775	540.61148
394.092	560.81866
394.408	564.00676
394.724	533.15969
395.04	542.73986
395.356	572.50506
395.672	601.15215
395.988	601.15215
396.304	575.69069
396.62	580.99861
396.936	578.87566
397.252	569.31875
397.567	587.3657
397.883	576.75242
398.199	553.37712
398.514	545.93185
398.83	561.88144
399.146	576.75242
399.461	572.50506
399.777	577.81408
400.092	571.44303
400.407	546.99569
400.723	569.31875
401.038	567.19418
401.353	557.62989
401.668	570.38093
401.983	564.00676
402.298	560.81866
402.613	565.06931
402.928	577.81408
403.243	580.99861
403.558	579.93717
403.873	572.50506
404.188	562.94414
404.503	538.48278
404.817	542.73986
405.132	579.93717
405.447	554.44043
405.761	560.81866
406.076	600.09208
406.39	589.48748
406.705	573.56701
407.019	579.93717
407.334	575.69069
407.648	579.93717
407.962	591.60898
408.276	571.44303
408.591	575.69069
408.905	574.62889
409.219	575.69069
409.533	578.87566
409.847	578.87566
410.161	576.75242
410.475	567.19418
410.789	586.3047
411.102	597.97173
411.416	622.33876
411.73	618.10366
412.044	578.87566
412.357	589.48748
412.671	569.31875
412.984	546.99569
413.298	587.3657
413.611	626.57276
413.925	627.63109
414.238	599.03194
414.552	577.81408
414.865	586.3047
415.178	575.69069
415.491	557.62989
415.804	608.57064
416.118	601.15215
416.431	557.62989
416.744	580.99861
417.057	571.44303
417.37	553.37712
417.683	578.87566
417.995	605.39171
418.308	599.03194
418.621	572.50506
418.934	570.38093
419.246	614.92662
419.559	607.51107
419.872	590.54827
420.184	588.42663
420.497	583.12126
420.809	611.74894
421.121	599.03194
421.434	582.05997
421.746	582.05997
422.058	583.12126
422.371	582.05997
422.683	559.75581
422.995	535.28916
423.307	557.62989
423.619	568.25651
423.931	561.88144
424.243	603.27207
424.555	625.51436
424.867	608.57064
425.179	608.57064
425.491	594.79068
425.802	559.75581
426.114	579.93717
426.426	592.66961
426.737	573.56701
427.049	596.91145
427.361	570.38093
427.672	550.18675
427.984	583.12126
428.295	584.18248
428.606	585.24363
428.918	608.57064
429.229	657.23708
429.54	630.80567
429.851	577.81408
430.163	572.50506
430.474	583.12126
430.785	600.09208
431.096	580.99861
431.407	579.93717
431.718	584.18248
432.029	562.94414
432.339	566.13178
432.65	591.60898
432.961	599.03194
433.272	577.81408
433.582	592.66961
433.893	590.54827
434.204	549.12314
434.514	568.25651
434.825	554.44043
435.135	541.6757
435.446	601.15215
435.756	601.15215
436.066	572.50506
436.377	602.21215
436.687	601.15215
436.997	576.75242
437.307	557.62989
437.617	570.38093
437.927	593.73018
438.237	595.8511
438.547	584.18248
438.857	573.56701
439.167	587.3657
439.477	569.31875
439.787	562.94414
440.097	580.99861
440.407	595.8511
440.716	583.12126
441.026	566.13178
441.336	556.56681
441.645	566.13178
441.955	548.05945
442.264	550.18675
442.574	583.12126
442.883	603.27207
443.192	593.73018
443.502	582.05997
443.811	613.86746
444.12	578.87566
444.429	559.75581
444.739	572.50506
445.048	591.60898
445.357	604.33193
445.666	567.19418
445.975	576.75242
446.284	594.79068
446.593	560.81866
446.901	574.62889
447.21	607.51107
447.519	573.56701
447.828	554.44043
448.136	555.50366
448.445	551.25029
448.754	567.19418
449.062	577.81408
449.371	569.31875
449.679	575.69069
449.988	591.60898
450.296	588.42663
450.605	575.69069
450.913	590.54827
451.221	611.74894
451.529	612.80824
451.838	611.74894
452.146	580.99861
452.454	567.19418
452.762	599.03194
453.07	577.81408
453.378	534.22446
453.686	525.70404
453.994	584.18248
454.302	579.93717
454.609	533.15969
454.917	574.62889
455.225	583.12126
455.533	570.38093
455.84	593.73018
456.148	593.73018
456.455	567.19418
456.763	577.81408
457.07	603.27207
457.378	600.09208
457.685	590.54827
457.993	601.15215
458.3	583.12126
458.607	577.81408
458.915	571.44303
459.222	570.38093
459.529	557.62989
459.836	575.69069
460.143	596.91145
460.45	568.25651
460.757	554.44043
461.064	577.81408
461.371	612.80824
461.678	582.05997
461.985	554.44043
462.292	571.44303
462.598	574.62889
462.905	560.81866
463.212	577.81408
463.518	592.66961
463.825	584.18248
464.131	594.79068
464.438	611.74894
464.744	614.92662
465.051	590.54827
465.357	570.38093
465.664	588.42663
465.97	612.80824
466.276	596.91145
466.582	557.62989
466.889	554.44043
467.195	560.81866
467.501	545.93185
467.807	559.75581
468.113	590.54827
468.419	555.50366
468.725	526.76937
469.031	549.12314
469.337	603.27207
469.642	612.80824
469.948	582.05997
470.254	588.42663
470.56	578.87566
470.865	569.31875
471.171	568.25651
471.477	570.38093
471.782	566.13178
472.088	603.27207
472.393	637.15301
472.698	597.97173
473.004	566.13178
473.309	552.31374
473.614	570.38093
473.92	568.25651
474.225	558.69289
474.53	589.48748
474.835	599.03194
475.14	585.24363
475.445	556.56681
475.75	548.05945
476.055	592.66961
476.36	643.49793
476.665	608.57064
476.97	578.87566
477.275	583.12126
477.58	589.48748
477.885	608.57064
478.189	600.09208
478.494	582.05997
478.799	554.44043
479.103	579.93717
479.408	587.3657
479.712	572.50506
480.017	587.3657
480.321	571.44303
480.625	561.88144
480.93	578.87566
481.234	573.56701
481.538	569.31875
481.843	567.19418
482.147	592.66961
482.451	608.57064
482.755	583.12126
483.059	597.97173
483.363	596.91145
483.667	586.3047
483.971	586.3047
484.275	590.54827
484.579	576.75242
484.883	536.35378
485.187	562.94414
485.49	613.86746
485.794	588.42663
486.098	577.81408
486.401	592.66961
486.705	550.18675
487.009	528.89979
487.312	551.25029
487.616	578.87566
487.919	585.24363
488.222	577.81408
488.526	568.25651
488.829	580.99861
489.132	576.75242
489.436	542.73986
489.739	546.99569
490.042	560.81866
490.345	587.3657
490.648	608.57064
490.951	590.54827
491.254	591.60898
491.557	580.99861
491.86	555.50366
492.163	578.87566
492.466	595.8511
492.769	574.62889
493.072	577.81408
493.375	591.60898
493.677	592.66961
493.98	602.21215
494.283	587.3657
494.585	590.54827
494.888	605.39171
495.19	611.74894
495.493	608.57064
495.795	584.18248
496.098	592.66961
496.4	621.28009
496.702	589.48748
497.005	575.69069
497.307	615.9857
497.609	609.63015
497.911	606.45143
498.213	604.33193
498.515	559.75581
498.818	570.38093
499.12	597.97173
499.422	586.3047
499.723	585.24363
500.025	586.3047
500.327	568.25651
500.629	600.09208
500.931	605.39171
501.233	572.50506
501.534	594.79068
501.836	593.73018
502.138	567.19418
502.439	552.31374
502.741	561.88144
503.042	570.38093
503.344	571.44303
503.645	608.57064
503.947	590.54827
504.248	561.88144
504.55	597.97173
504.851	578.87566
505.152	573.56701
505.453	601.15215
505.755	597.97173
506.056	577.81408
506.357	565.06931
506.658	605.39171
506.959	619.16254
507.26	608.57064
507.561	599.03194
507.862	584.18248
508.163	597.97173
508.464	584.18248
508.764	572.50506
509.065	578.87566
509.366	599.03194
509.667	594.79068
509.967	578.87566
510.268	571.44303
510.569	570.38093
510.869	574.62889
511.17	541.6757
511.47	578.87566
511.771	601.15215
512.071	574.62889
512.371	574.62889
512.672	560.81866
512.972	561.88144
513.272	569.31875
513.573	583.12126
513.873	605.39171
514.173	604.33193
514.473	583.12126
514.773	579.93717
515.073	580.99861
515.373	572.50506
515.673	561.88144
515.973	582.05997
516.273	575.69069
516.573	549.12314
516.873	549.12314
517.172	567.19418
517.472	588.42663
517.772	578.87566
518.072	583.12126
518.371	613.86746
518.671	611.74894
518.97	590.54827
519.27	603.27207
519.569	610.68958
519.869	588.42663
520.168	582.05997
520.468	586.3047
520.767	568.25651
521.066	564.00676
521.366	576.75242
521.665	573.56701
521.964	570.38093
522.263	568.25651
522.562	565.06931
522.861	568.25651
523.161	574.62889
523.46	564.00676
523.759	571.44303
524.057	573.56701
524.356	557.62989
524.655	566.13178
524.954	590.54827
525.253	608.57064
525.552	600.09208
525.85	608.57064
526.149	610.68958
526.448	591.60898
526.746	576.75242
527.045	576.75242
527.344	588.42663
527.642	577.81408
527.941	566.13178
528.239	594.79068
528.537	584.18248
528.836	573.56701
529.134	587.3657
529.432	599.03194
529.731	608.57064
530.029	607.51107
530.327	624.4559
530.625	611.74894
530.923	584.18248
531.221	572.50506
531.52	582.05997
531.818	579.93717
532.116	578.87566
532.413	594.79068
532.711	592.66961
533.009	591.60898
533.307	582.05997
533.605	564.00676
533.903	588.42663
534.2	599.03194
534.498	575.69069
534.796	594.79068
535.093	609.63015
535.391	594.79068
535.689	567.19418
535.986	577.81408
536.284	580.99861
536.581	555.50366
536.878	577.81408
537.176	590.54827
537.473	578.87566
537.77	583.12126
538.068	590.54827
538.365	564.00676
538.662	562.94414
538.959	618.10366
539.256	620.22135
539.554	579.93717
