Data from dark_beginning_ST026791__137__1235.txt Node

Date: Mon Aug 18 22:10:38 AEST 2025
User: mathewyoussef
Spectrometer: ST02679
Trigger mode: 0
Integration Time (sec): 6.653700E-1
Scans to average: 1
Nonlinearity correction enabled: true
Boxcar width: 0
Storing dark spectrum: false
XAxis mode: Wavelengths
Number of Pixels in Spectrum: 1516
>>>>>Begin Spectral Data<<<<<
187.304	569.31875
187.653	600.09208
188.002	607.51107
188.351	583.12126
188.7	609.63015
189.048	609.63015
189.397	586.3047
189.746	572.50506
190.094	568.25651
190.443	596.91145
190.791	583.12126
191.14	586.3047
191.488	600.09208
191.837	591.60898
192.185	574.62889
192.533	568.25651
192.881	594.79068
193.229	585.24363
193.577	591.60898
193.925	610.68958
194.273	582.05997
194.621	589.48748
194.969	575.69069
195.317	536.35378
195.664	560.81866
196.012	557.62989
196.359	549.12314
196.707	557.62989
197.054	557.62989
197.402	567.19418
197.749	582.05997
198.096	596.91145
198.443	553.37712
198.791	532.09483
199.138	554.44043
199.485	568.25651
199.832	578.87566
200.179	577.81408
200.525	558.69289
200.872	561.88144
201.219	576.75242
201.566	568.25651
201.912	589.48748
202.259	595.8511
202.605	572.50506
202.952	579.93717
203.298	571.44303
203.644	567.19418
203.991	575.69069
204.337	557.62989
204.683	555.50366
205.029	575.69069
205.375	601.15215
205.721	625.51436
206.067	602.21215
206.413	578.87566
206.759	560.81866
207.104	549.12314
207.45	571.44303
207.796	570.38093
208.141	553.37712
208.487	564.00676
208.832	601.15215
209.177	582.05997
209.523	548.05945
209.868	579.93717
210.213	591.60898
210.558	586.3047
210.903	602.21215
211.248	584.18248
211.593	588.42663
211.938	594.79068
212.283	597.97173
212.628	595.8511
212.973	587.3657
213.317	578.87566
213.662	555.50366
214.007	565.06931
214.351	559.75581
214.696	565.06931
215.04	588.42663
215.384	596.91145
215.729	580.99861
216.073	582.05997
216.417	635.0375
216.761	618.10366
217.105	578.87566
217.449	611.74894
217.793	588.42663
218.137	553.37712
218.481	582.05997
218.824	600.09208
219.168	575.69069
219.512	557.62989
219.855	568.25651
220.199	552.31374
220.542	569.31875
220.886	606.45143
221.229	584.18248
221.572	538.48278
221.916	545.93185
222.259	589.48748
222.602	585.24363
222.945	574.62889
223.288	583.12126
223.631	555.50366
223.974	542.73986
224.317	576.75242
224.659	599.03194
225.002	594.79068
225.345	584.18248
225.687	594.79068
226.03	619.16254
226.372	599.03194
226.715	580.99861
227.057	586.3047
227.4	611.74894
227.742	608.57064
228.084	591.60898
228.426	592.66961
228.768	588.42663
229.11	575.69069
229.452	583.12126
229.794	627.63109
230.136	604.33193
230.478	569.31875
230.82	585.24363
231.161	590.54827
231.503	615.9857
231.845	594.79068
232.186	589.48748
232.528	597.97173
232.869	560.81866
233.21	585.24363
233.552	589.48748
233.893	572.50506
234.234	582.05997
234.575	592.66961
234.916	627.63109
235.257	620.22135
235.598	611.74894
235.939	621.28009
236.28	576.75242
236.621	550.18675
236.961	580.99861
237.302	611.74894
237.643	574.62889
237.983	567.19418
238.324	588.42663
238.664	577.81408
239.005	558.69289
239.345	551.25029
239.685	577.81408
240.025	590.54827
240.366	578.87566
240.706	594.79068
241.046	603.27207
241.386	578.87566
241.726	566.13178
242.066	560.81866
242.405	565.06931
242.745	578.87566
243.085	596.91145
243.425	615.9857
243.764	606.45143
244.104	610.68958
244.443	601.15215
244.783	583.12126
245.122	594.79068
245.461	587.3657
245.801	588.42663
246.14	588.42663
246.479	565.06931
246.818	568.25651
247.157	585.24363
247.496	580.99861
247.835	580.99861
248.174	588.42663
248.513	609.63015
248.852	604.33193
249.19	585.24363
249.529	583.12126
249.868	575.69069
250.206	592.66961
250.545	609.63015
250.883	579.93717
251.221	576.75242
251.56	591.60898
251.898	587.3657
252.236	592.66961
252.574	575.69069
252.912	556.56681
253.25	578.87566
253.588	592.66961
253.926	573.56701
254.264	564.00676
254.602	569.31875
254.94	565.06931
255.278	556.56681
255.615	574.62889
255.953	576.75242
256.29	565.06931
256.628	564.00676
256.965	562.94414
257.303	589.48748
257.64	606.45143
257.977	591.60898
258.314	592.66961
258.652	584.18248
258.989	569.31875
259.326	560.81866
259.663	577.81408
260	591.60898
260.337	576.75242
260.673	589.48748
261.01	611.74894
261.347	596.91145
261.684	572.50506
262.02	577.81408
262.357	587.3657
262.693	576.75242
263.03	582.05997
263.366	582.05997
263.702	561.88144
264.039	580.99861
264.375	592.66961
264.711	599.03194
265.047	585.24363
265.383	550.18675
265.719	542.73986
266.055	583.12126
266.391	592.66961
266.727	573.56701
267.063	578.87566
267.399	565.06931
267.734	562.94414
268.07	566.13178
268.405	583.12126
268.741	592.66961
269.076	585.24363
269.412	582.05997
269.747	557.62989
270.082	535.28916
270.418	574.62889
270.753	608.57064
271.088	600.09208
271.423	577.81408
271.758	552.31374
272.093	542.73986
272.428	537.41832
272.763	574.62889
273.098	568.25651
273.433	567.19418
273.767	600.09208
274.102	569.31875
274.436	548.05945
274.771	571.44303
275.106	570.38093
275.44	574.62889
275.774	601.15215
276.109	589.48748
276.443	584.18248
276.777	605.39171
277.111	627.63109
277.445	596.91145
277.78	575.69069
278.114	623.39736
278.447	606.45143
278.781	567.19418
279.115	560.81866
279.449	572.50506
279.783	579.93717
280.116	565.06931
280.45	564.00676
280.784	570.38093
281.117	555.50366
281.451	540.61148
281.784	594.79068
282.117	587.3657
282.451	543.80393
282.784	579.93717
283.117	599.03194
283.45	582.05997
283.783	591.60898
284.116	575.69069
284.449	558.69289
284.782	585.24363
285.115	604.33193
285.448	590.54827
285.781	556.56681
286.114	554.44043
286.446	574.62889
286.779	593.73018
287.111	584.18248
287.444	560.81866
287.776	552.31374
288.109	560.81866
288.441	576.75242
288.773	576.75242
289.106	588.42663
289.438	588.42663
289.77	580.99861
290.102	595.8511
290.434	578.87566
290.766	586.3047
291.098	610.68958
291.43	610.68958
291.762	591.60898
292.094	561.88144
292.425	553.37712
292.757	552.31374
293.089	601.15215
293.42	601.15215
293.752	567.19418
294.083	589.48748
294.414	597.97173
294.746	579.93717
295.077	559.75581
295.408	588.42663
295.74	637.15301
296.071	610.68958
296.402	556.56681
296.733	553.37712
297.064	574.62889
297.395	591.60898
297.726	583.12126
298.056	602.21215
298.387	599.03194
298.718	586.3047
299.049	592.66961
299.379	546.99569
299.71	559.75581
300.04	588.42663
300.371	558.69289
300.701	565.06931
301.031	599.03194
301.362	578.87566
301.692	551.25029
302.022	555.50366
302.352	568.25651
302.682	592.66961
303.012	593.73018
303.342	578.87566
303.672	575.69069
304.002	578.87566
304.332	570.38093
304.662	559.75581
304.992	566.13178
305.321	556.56681
305.651	560.81866
305.98	579.93717
306.31	571.44303
306.639	587.3657
306.969	601.15215
307.298	585.24363
307.628	592.66961
307.957	595.8511
308.286	568.25651
308.615	596.91145
308.944	614.92662
309.273	577.81408
309.602	580.99861
309.931	620.22135
310.26	617.04472
310.589	578.87566
310.918	561.88144
311.247	593.73018
311.575	602.21215
311.904	566.13178
312.233	576.75242
312.561	605.39171
312.89	608.57064
313.218	615.9857
313.546	599.03194
313.875	562.94414
314.203	555.50366
314.531	582.05997
314.859	601.15215
315.188	590.54827
315.516	576.75242
315.844	565.06931
316.172	588.42663
316.5	599.03194
316.827	577.81408
317.155	577.81408
317.483	597.97173
317.811	593.73018
318.138	586.3047
318.466	602.21215
318.794	622.33876
319.121	607.51107
319.449	584.18248
319.776	582.05997
320.103	588.42663
320.431	580.99861
320.758	578.87566
321.085	600.09208
321.412	579.93717
321.739	571.44303
322.066	558.69289
322.393	545.93185
322.72	575.69069
323.047	580.99861
323.374	594.79068
323.701	586.3047
324.028	594.79068
324.354	590.54827
324.681	580.99861
325.008	611.74894
325.334	601.15215
325.661	588.42663
325.987	576.75242
326.314	591.60898
326.64	577.81408
326.966	560.81866
327.293	574.62889
327.619	573.56701
327.945	573.56701
328.271	594.79068
328.597	606.45143
328.923	602.21215
329.249	602.21215
329.575	586.3047
329.901	579.93717
330.227	565.06931
330.552	573.56701
330.878	586.3047
331.204	576.75242
331.529	557.62989
331.855	590.54827
332.18	606.45143
332.506	560.81866
332.831	541.6757
333.156	529.96488
333.482	559.75581
333.807	585.24363
334.132	590.54827
334.457	587.3657
334.782	566.13178
335.107	559.75581
335.432	576.75242
335.757	580.99861
336.082	574.62889
336.407	585.24363
336.732	596.91145
337.057	556.56681
337.381	534.22446
337.706	573.56701
338.031	583.12126
338.355	594.79068
338.68	587.3657
339.004	572.50506
339.329	603.27207
339.653	566.13178
339.977	517.17852
340.301	544.86793
340.626	574.62889
340.95	579.93717
341.274	602.21215
341.598	611.74894
341.922	593.73018
342.246	590.54827
342.57	574.62889
342.894	553.37712
343.218	562.94414
343.541	580.99861
343.865	574.62889
344.189	556.56681
344.512	561.88144
344.836	575.69069
345.159	573.56701
345.483	573.56701
345.806	561.88144
346.13	595.8511
346.453	623.39736
346.776	584.18248
347.099	592.66961
347.423	595.8511
347.746	570.38093
348.069	584.18248
348.392	587.3657
348.715	561.88144
349.038	558.69289
349.361	562.94414
349.683	557.62989
350.006	543.80393
350.329	566.13178
350.652	595.8511
350.974	586.3047
351.297	586.3047
351.619	592.66961
351.942	579.93717
352.264	577.81408
352.587	588.42663
352.909	576.75242
353.231	571.44303
353.554	569.31875
353.876	561.88144
354.198	566.13178
354.52	578.87566
354.842	584.18248
355.164	577.81408
355.486	589.48748
355.808	577.81408
356.13	543.80393
356.452	584.18248
356.773	592.66961
357.095	575.69069
357.417	586.3047
357.738	554.44043
358.06	560.81866
358.381	567.19418
358.703	557.62989
359.024	575.69069
359.346	561.88144
359.667	559.75581
359.988	578.87566
360.309	596.91145
360.631	609.63015
360.952	590.54827
361.273	553.37712
361.594	564.00676
361.915	576.75242
362.236	558.69289
362.557	594.79068
362.878	597.97173
363.198	569.31875
363.519	565.06931
363.84	568.25651
364.16	594.79068
364.481	584.18248
364.802	575.69069
365.122	585.24363
365.443	592.66961
365.763	603.27207
366.083	578.87566
366.404	565.06931
366.724	568.25651
367.044	570.38093
367.364	569.31875
367.685	566.13178
368.005	560.81866
368.325	548.05945
368.645	556.56681
368.965	561.88144
369.284	568.25651
369.604	566.13178
369.924	566.13178
370.244	590.54827
370.564	584.18248
370.883	569.31875
371.203	542.73986
371.522	552.31374
371.842	597.97173
372.161	579.93717
372.481	571.44303
372.8	568.25651
373.119	582.05997
373.439	604.33193
373.758	578.87566
374.077	594.79068
374.396	601.15215
374.715	568.25651
375.034	576.75242
375.353	586.3047
375.672	554.44043
375.991	541.6757
376.31	560.81866
376.629	585.24363
376.948	583.12126
377.266	583.12126
377.585	622.33876
377.904	604.33193
378.222	572.50506
378.541	571.44303
378.859	557.62989
379.178	568.25651
379.496	590.54827
379.814	585.24363
380.133	561.88144
380.451	561.88144
380.769	567.19418
381.087	578.87566
381.405	586.3047
381.723	566.13178
382.041	556.56681
382.359	572.50506
382.677	592.66961
382.995	612.80824
383.313	591.60898
383.631	572.50506
383.949	596.91145
384.266	571.44303
384.584	562.94414
384.901	576.75242
385.219	569.31875
385.537	578.87566
385.854	572.50506
386.171	569.31875
386.489	573.56701
386.806	575.69069
387.123	600.09208
387.441	611.74894
387.758	592.66961
388.075	565.06931
388.392	584.18248
388.709	620.22135
389.026	600.09208
389.343	575.69069
389.66	595.8511
389.977	612.80824
390.294	599.03194
390.61	596.91145
390.927	600.09208
391.244	594.79068
391.56	573.56701
391.877	576.75242
392.193	575.69069
392.51	562.94414
392.826	576.75242
393.143	560.81866
393.459	562.94414
393.775	583.12126
394.092	562.94414
394.408	574.62889
394.724	579.93717
395.04	574.62889
395.356	601.15215
395.672	604.33193
395.988	599.03194
396.304	587.3657
396.62	570.38093
396.936	556.56681
397.252	569.31875
397.567	583.12126
397.883	583.12126
398.199	593.73018
398.514	569.31875
398.83	559.75581
399.146	557.62989
399.461	568.25651
399.777	597.97173
400.092	601.15215
400.407	561.88144
400.723	542.73986
401.038	561.88144
401.353	550.18675
401.668	555.50366
401.983	555.50366
402.298	569.31875
402.613	576.75242
402.928	594.79068
403.243	593.73018
403.558	565.06931
403.873	575.69069
404.188	593.73018
404.503	604.33193
404.817	604.33193
405.132	582.05997
405.447	578.87566
405.761	603.27207
406.076	572.50506
406.39	542.73986
406.705	559.75581
407.019	583.12126
407.334	576.75242
407.648	560.81866
407.962	558.69289
408.276	546.99569
408.591	537.41832
408.905	554.44043
409.219	589.48748
409.533	579.93717
409.847	585.24363
410.161	590.54827
410.475	565.06931
410.789	561.88144
411.102	576.75242
411.416	602.21215
411.73	589.48748
412.044	565.06931
412.357	573.56701
412.671	591.60898
412.984	578.87566
413.298	582.05997
413.611	593.73018
413.925	583.12126
414.238	582.05997
414.552	580.99861
414.865	560.81866
415.178	533.15969
415.491	551.25029
415.804	608.57064
416.118	612.80824
416.431	583.12126
416.744	571.44303
417.057	574.62889
417.37	570.38093
417.683	564.00676
417.995	573.56701
418.308	571.44303
418.621	590.54827
418.934	593.73018
419.246	557.62989
419.559	567.19418
419.872	576.75242
420.184	542.73986
420.497	562.94414
420.809	580.99861
421.121	584.18248
421.434	570.38093
421.746	542.73986
422.058	545.93185
422.371	544.86793
422.683	567.19418
422.995	595.8511
423.307	607.51107
423.619	596.91145
423.931	568.25651
424.243	564.00676
424.555	583.12126
424.867	611.74894
425.179	633.97964
425.491	622.33876
425.802	591.60898
426.114	597.97173
426.426	600.09208
426.737	582.05997
427.049	592.66961
427.361	612.80824
427.672	618.10366
427.984	588.42663
428.295	578.87566
428.606	596.91145
428.918	589.48748
429.229	632.92172
429.54	674.13176
429.851	611.74894
430.163	584.18248
430.474	587.3657
430.785	562.94414
431.096	567.19418
431.407	574.62889
431.718	555.50366
432.029	559.75581
432.339	564.00676
432.65	586.3047
432.961	576.75242
433.272	566.13178
433.582	592.66961
433.893	591.60898
434.204	578.87566
434.514	562.94414
434.825	546.99569
435.135	532.09483
435.446	554.44043
435.756	556.56681
436.066	569.31875
436.377	612.80824
436.687	589.48748
436.997	559.75581
437.307	565.06931
437.617	569.31875
437.927	564.00676
438.237	557.62989
438.547	570.38093
438.857	587.3657
439.167	577.81408
439.477	557.62989
439.787	542.73986
440.097	550.18675
440.407	577.81408
440.716	582.05997
441.026	566.13178
441.336	576.75242
441.645	577.81408
441.955	552.31374
442.264	562.94414
442.574	588.42663
442.883	573.56701
443.192	582.05997
443.502	617.04472
443.811	599.03194
444.12	565.06931
444.429	559.75581
444.739	594.79068
445.048	623.39736
445.357	603.27207
445.666	570.38093
445.975	583.12126
446.284	579.93717
446.593	562.94414
446.901	582.05997
447.21	586.3047
447.519	577.81408
447.828	576.75242
448.136	604.33193
448.445	606.45143
448.754	569.31875
449.062	556.56681
449.371	571.44303
449.679	582.05997
449.988	578.87566
450.296	582.05997
450.605	566.13178
450.913	587.3657
451.221	637.15301
451.529	618.10366
451.838	578.87566
452.146	571.44303
452.454	592.66961
452.762	626.57276
453.07	619.16254
453.378	600.09208
453.686	571.44303
453.994	593.73018
454.302	604.33193
454.609	546.99569
454.917	559.75581
455.225	571.44303
455.533	572.50506
455.84	590.54827
456.148	571.44303
456.455	579.93717
456.763	601.15215
457.07	560.81866
457.378	543.80393
457.685	538.48278
457.993	539.54717
458.3	567.19418
458.607	549.12314
458.915	565.06931
459.222	578.87566
459.529	565.06931
459.836	579.93717
460.143	568.25651
460.45	550.18675
460.757	572.50506
461.064	583.12126
461.371	580.99861
461.678	584.18248
461.985	558.69289
462.292	553.37712
462.598	560.81866
462.905	562.94414
463.212	597.97173
463.518	599.03194
463.825	588.42663
464.131	611.74894
464.438	595.8511
464.744	575.69069
465.051	562.94414
465.357	557.62989
465.664	571.44303
465.97	579.93717
466.276	567.19418
466.582	575.69069
466.889	574.62889
467.195	593.73018
467.501	604.33193
467.807	590.54827
468.113	592.66961
468.419	585.24363
468.725	586.3047
469.031	602.21215
469.337	639.26825
469.642	610.68958
469.948	565.06931
470.254	559.75581
470.56	561.88144
470.865	559.75581
471.171	572.50506
471.477	575.69069
471.782	557.62989
472.088	583.12126
472.393	608.57064
472.698	595.8511
473.004	559.75581
473.309	561.88144
473.614	593.73018
473.92	549.12314
474.225	537.41832
474.53	570.38093
474.835	582.05997
475.14	578.87566
475.445	579.93717
475.75	600.09208
476.055	610.68958
476.36	625.51436
476.665	606.45143
476.97	586.3047
477.275	607.51107
477.58	599.03194
477.885	600.09208
478.189	580.99861
478.494	573.56701
478.799	606.45143
479.103	599.03194
479.408	562.94414
479.712	556.56681
480.017	567.19418
480.321	566.13178
480.625	571.44303
480.93	573.56701
481.234	556.56681
481.538	570.38093
481.843	583.12126
482.147	585.24363
482.451	605.39171
482.755	604.33193
483.059	584.18248
483.363	561.88144
483.667	562.94414
483.971	560.81866
484.275	549.12314
484.579	559.75581
484.883	588.42663
485.187	606.45143
485.49	607.51107
485.794	588.42663
486.098	540.61148
486.401	506.51435
486.705	532.09483
487.009	562.94414
487.312	551.25029
487.616	575.69069
487.919	602.21215
488.222	587.3657
488.526	580.99861
488.829	557.62989
489.132	576.75242
489.436	597.97173
489.739	571.44303
490.042	548.05945
490.345	556.56681
490.648	586.3047
490.951	612.80824
491.254	603.27207
491.557	568.25651
491.86	548.05945
492.163	538.48278
492.466	546.99569
492.769	583.12126
493.072	584.18248
493.375	565.06931
493.677	561.88144
493.98	550.18675
494.283	576.75242
494.585	585.24363
494.888	578.87566
495.19	592.66961
495.493	595.8511
495.795	579.93717
496.098	577.81408
496.4	576.75242
496.702	570.38093
497.005	584.18248
497.307	624.4559
497.609	608.57064
497.911	553.37712
498.213	570.38093
498.515	611.74894
498.818	605.39171
499.12	558.69289
499.422	554.44043
499.723	570.38093
500.025	579.93717
500.327	584.18248
500.629	582.05997
500.931	600.09208
501.233	615.9857
501.534	595.8511
501.836	573.56701
502.138	584.18248
502.439	572.50506
502.741	564.00676
503.042	573.56701
503.344	557.62989
503.645	580.99861
503.947	591.60898
504.248	565.06931
504.55	579.93717
504.851	606.45143
505.152	601.15215
505.453	571.44303
505.755	578.87566
506.056	566.13178
506.357	549.12314
506.658	560.81866
506.959	550.18675
507.26	574.62889
507.561	603.27207
507.862	573.56701
508.163	571.44303
508.464	587.3657
508.764	584.18248
509.065	592.66961
509.366	613.86746
509.667	608.57064
509.967	580.99861
510.268	561.88144
510.569	573.56701
510.869	603.27207
511.17	573.56701
511.47	558.69289
511.771	562.94414
512.071	565.06931
512.371	569.31875
512.672	564.00676
512.972	553.37712
513.272	565.06931
513.573	576.75242
513.873	566.13178
514.173	558.69289
514.473	551.25029
514.773	543.80393
515.073	532.09483
515.373	580.99861
515.673	603.27207
515.973	562.94414
516.273	550.18675
516.573	551.25029
516.873	554.44043
517.172	591.60898
517.472	590.54827
517.772	569.31875
518.072	579.93717
518.371	583.12126
518.671	593.73018
518.97	592.66961
519.27	575.69069
519.569	584.18248
519.869	620.22135
520.168	621.28009
520.468	587.3657
520.767	565.06931
521.066	574.62889
521.366	594.79068
521.665	585.24363
521.964	565.06931
522.263	594.79068
522.562	587.3657
522.861	558.69289
523.161	570.38093
523.46	590.54827
523.759	599.03194
524.057	597.97173
524.356	611.74894
524.655	585.24363
524.954	578.87566
525.253	604.33193
525.552	593.73018
525.85	584.18248
526.149	565.06931
526.448	573.56701
526.746	572.50506
527.045	551.25029
527.344	617.04472
527.642	636.09528
527.941	579.93717
528.239	572.50506
528.537	588.42663
528.836	604.33193
529.134	597.97173
529.432	593.73018
529.731	584.18248
530.029	591.60898
530.327	601.15215
530.625	582.05997
530.923	566.13178
531.221	567.19418
531.52	594.79068
531.818	561.88144
532.116	520.37619
532.413	555.50366
532.711	589.48748
533.009	576.75242
533.307	571.44303
533.605	573.56701
533.903	571.44303
534.2	578.87566
534.498	593.73018
534.796	588.42663
535.093	575.69069
535.391	593.73018
535.689	579.93717
535.986	560.81866
536.284	584.18248
536.581	596.91145
536.878	603.27207
537.176	579.93717
537.473	582.05997
537.77	577.81408
538.068	552.31374
538.365	584.18248
538.662	592.66961
538.959	589.48748
539.256	586.3047
539.554	592.66961
