Data from dark_beginning_ST026791__145__1243.txt Node

Date: Mon Aug 18 22:10:49 AEST 2025
User: mathewyoussef
Spectrometer: ST02679
Trigger mode: 0
Integration Time (sec): 6.653700E-1
Scans to average: 1
Nonlinearity correction enabled: true
Boxcar width: 0
Storing dark spectrum: false
XAxis mode: Wavelengths
Number of Pixels in Spectrum: 1516
>>>>>Begin Spectral Data<<<<<
187.304	562.94414
187.653	559.75581
188.002	562.94414
188.351	553.37712
188.7	569.31875
189.048	569.31875
189.397	565.06931
189.746	565.06931
190.094	560.81866
190.443	571.44303
190.791	575.69069
191.14	577.81408
191.488	588.42663
191.837	570.38093
192.185	558.69289
192.533	575.69069
192.881	583.12126
193.229	589.48748
193.577	597.97173
193.925	587.3657
194.273	593.73018
194.621	604.33193
194.969	572.50506
195.317	560.81866
195.664	586.3047
196.012	573.56701
196.359	558.69289
196.707	579.93717
197.054	552.31374
197.402	523.57314
197.749	566.13178
198.096	586.3047
198.443	564.00676
198.791	562.94414
199.138	572.50506
199.485	592.66961
199.832	591.60898
200.179	567.19418
200.525	573.56701
200.872	573.56701
201.219	572.50506
201.566	586.3047
201.912	583.12126
202.259	586.3047
202.605	591.60898
202.952	566.13178
203.298	543.80393
203.644	534.22446
203.991	537.41832
204.337	577.81408
204.683	576.75242
205.029	574.62889
205.375	578.87566
205.721	593.73018
206.067	619.16254
206.413	605.39171
206.759	588.42663
207.104	562.94414
207.45	564.00676
207.796	587.3657
208.141	591.60898
208.487	569.31875
208.832	552.31374
209.177	569.31875
209.523	589.48748
209.868	575.69069
210.213	549.12314
210.558	540.61148
210.903	543.80393
211.248	555.50366
211.593	565.06931
211.938	548.05945
212.283	550.18675
212.628	541.6757
212.973	538.48278
213.317	558.69289
213.662	573.56701
214.007	569.31875
214.351	551.25029
214.696	580.99861
215.04	574.62889
215.384	569.31875
215.729	569.31875
216.073	546.99569
216.417	560.81866
216.761	592.66961
217.105	591.60898
217.449	559.75581
217.793	559.75581
218.137	573.56701
218.481	555.50366
218.824	565.06931
219.168	576.75242
219.512	569.31875
219.855	552.31374
220.199	553.37712
220.542	555.50366
220.886	549.12314
221.229	591.60898
221.572	599.03194
221.916	588.42663
222.259	583.12126
222.602	548.05945
222.945	538.48278
223.288	565.06931
223.631	568.25651
223.974	575.69069
224.317	573.56701
224.659	558.69289
225.002	580.99861
225.345	580.99861
225.687	561.88144
226.03	571.44303
226.372	566.13178
226.715	560.81866
227.057	568.25651
227.4	567.19418
227.742	564.00676
228.084	561.88144
228.426	556.56681
228.768	561.88144
229.11	549.12314
229.452	561.88144
229.794	596.91145
230.136	583.12126
230.478	567.19418
230.82	584.18248
231.161	583.12126
231.503	603.27207
231.845	628.68935
232.186	620.22135
232.528	615.9857
232.869	588.42663
233.21	570.38093
233.552	576.75242
233.893	569.31875
234.234	545.93185
234.575	557.62989
234.916	571.44303
235.257	577.81408
235.598	549.12314
235.939	556.56681
236.28	574.62889
236.621	564.00676
236.961	584.18248
237.302	586.3047
237.643	562.94414
237.983	558.69289
238.324	545.93185
238.664	540.61148
239.005	541.6757
239.345	557.62989
239.685	574.62889
240.025	569.31875
240.366	585.24363
240.706	587.3657
241.046	572.50506
241.386	554.44043
241.726	551.25029
242.066	546.99569
242.405	558.69289
242.745	571.44303
243.085	582.05997
243.425	601.15215
243.764	626.57276
244.104	639.26825
244.443	618.10366
244.783	592.66961
245.122	578.87566
245.461	566.13178
245.801	597.97173
246.14	613.86746
246.479	568.25651
246.818	545.93185
247.157	573.56701
247.496	599.03194
247.835	573.56701
248.174	557.62989
248.513	549.12314
248.852	560.81866
249.19	564.00676
249.529	556.56681
249.868	568.25651
250.206	578.87566
250.545	588.42663
250.883	560.81866
251.221	561.88144
251.56	567.19418
251.898	525.70404
252.236	533.15969
252.574	554.44043
252.912	567.19418
253.25	571.44303
253.588	569.31875
253.926	584.18248
254.264	583.12126
254.602	594.79068
254.94	592.66961
255.278	573.56701
255.615	593.73018
255.953	596.91145
256.29	575.69069
256.628	572.50506
256.965	575.69069
257.303	578.87566
257.64	602.21215
257.977	589.48748
258.314	541.6757
258.652	551.25029
258.989	550.18675
259.326	541.6757
259.663	577.81408
260	575.69069
260.337	571.44303
260.673	596.91145
261.01	583.12126
261.347	579.93717
261.684	585.24363
262.02	560.81866
262.357	593.73018
262.693	608.57064
263.03	579.93717
263.366	571.44303
263.702	552.31374
264.039	553.37712
264.375	553.37712
264.711	558.69289
265.047	558.69289
265.383	562.94414
265.719	562.94414
266.055	555.50366
266.391	589.48748
266.727	582.05997
267.063	575.69069
267.399	574.62889
267.734	552.31374
268.07	561.88144
268.405	546.99569
268.741	538.48278
269.076	586.3047
269.412	579.93717
269.747	559.75581
270.082	565.06931
270.418	559.75581
270.753	572.50506
271.088	565.06931
271.423	549.12314
271.758	580.99861
272.093	603.27207
272.428	591.60898
272.763	575.69069
273.098	568.25651
273.433	593.73018
273.767	580.99861
274.102	549.12314
274.436	552.31374
274.771	591.60898
275.106	605.39171
275.44	587.3657
275.774	580.99861
276.109	577.81408
276.443	568.25651
276.777	575.69069
277.111	564.00676
277.445	543.80393
277.78	570.38093
278.114	584.18248
278.447	571.44303
278.781	564.00676
279.115	597.97173
279.449	592.66961
279.783	559.75581
280.116	573.56701
280.45	582.05997
280.784	588.42663
281.117	583.12126
281.451	590.54827
281.784	631.86373
282.117	605.39171
282.451	551.25029
282.784	552.31374
283.117	576.75242
283.45	580.99861
283.783	569.31875
284.116	582.05997
284.449	562.94414
284.782	542.73986
285.115	556.56681
285.448	586.3047
285.781	575.69069
286.114	570.38093
286.446	608.57064
286.779	609.63015
287.111	583.12126
287.444	559.75581
287.776	556.56681
288.109	585.24363
288.441	599.03194
288.773	569.31875
289.106	561.88144
289.438	574.62889
289.77	571.44303
290.102	585.24363
290.434	573.56701
290.766	593.73018
291.098	603.27207
291.43	574.62889
291.762	571.44303
292.094	540.61148
292.425	546.99569
292.757	534.22446
293.089	546.99569
293.42	580.99861
293.752	552.31374
294.083	562.94414
294.414	580.99861
294.746	561.88144
295.077	588.42663
295.408	592.66961
295.74	591.60898
296.071	587.3657
296.402	564.00676
296.733	573.56701
297.064	548.05945
297.395	528.89979
297.726	533.15969
298.056	566.13178
298.387	579.93717
298.718	552.31374
299.049	565.06931
299.379	557.62989
299.71	537.41832
300.04	571.44303
300.371	580.99861
300.701	556.56681
301.031	558.69289
301.362	568.25651
301.692	575.69069
302.022	561.88144
302.352	565.06931
302.682	578.87566
303.012	560.81866
303.342	594.79068
303.672	601.15215
304.002	594.79068
304.332	594.79068
304.662	558.69289
304.992	554.44043
305.321	550.18675
305.651	556.56681
305.98	539.54717
306.31	526.76937
306.639	574.62889
306.969	599.03194
307.298	560.81866
307.628	549.12314
307.957	566.13178
308.286	552.31374
308.615	576.75242
308.944	617.04472
309.273	600.09208
309.602	571.44303
309.931	594.79068
310.26	606.45143
310.589	591.60898
310.918	602.21215
311.247	611.74894
311.575	587.3657
311.904	582.05997
312.233	591.60898
312.561	574.62889
312.89	538.48278
313.218	555.50366
313.546	603.27207
313.875	568.25651
314.203	541.6757
314.531	571.44303
314.859	566.13178
315.188	532.09483
315.516	552.31374
315.844	580.99861
316.172	594.79068
316.5	585.24363
316.827	557.62989
317.155	559.75581
317.483	542.73986
317.811	545.93185
318.138	556.56681
318.466	548.05945
318.794	559.75581
319.121	589.48748
319.449	605.39171
319.776	588.42663
320.103	546.99569
320.431	543.80393
320.758	576.75242
321.085	572.50506
321.412	562.94414
321.739	567.19418
322.066	567.19418
322.393	550.18675
322.72	564.00676
323.047	580.99861
323.374	587.3657
323.701	579.93717
324.028	594.79068
324.354	584.18248
324.681	566.13178
325.008	585.24363
325.334	552.31374
325.661	557.62989
325.987	585.24363
326.314	590.54827
326.64	582.05997
326.966	568.25651
327.293	544.86793
327.619	542.73986
327.945	540.61148
328.271	557.62989
328.597	589.48748
328.923	595.8511
329.249	608.57064
329.575	612.80824
329.901	589.48748
330.227	569.31875
330.552	562.94414
330.878	565.06931
331.204	559.75581
331.529	577.81408
331.855	609.63015
332.18	592.66961
332.506	567.19418
332.831	551.25029
333.156	592.66961
333.482	600.09208
333.807	566.13178
334.132	541.6757
334.457	548.05945
334.782	589.48748
335.107	590.54827
335.432	554.44043
335.757	529.96488
336.082	553.37712
336.407	590.54827
336.732	606.45143
337.057	586.3047
337.381	559.75581
337.706	558.69289
338.031	561.88144
338.355	556.56681
338.68	565.06931
339.004	579.93717
339.329	589.48748
339.653	594.79068
339.977	592.66961
340.301	580.99861
340.626	579.93717
340.95	597.97173
341.274	589.48748
341.598	594.79068
341.922	561.88144
342.246	524.63863
342.57	555.50366
342.894	567.19418
343.218	592.66961
343.541	592.66961
343.865	593.73018
344.189	609.63015
344.512	580.99861
344.836	552.31374
345.159	557.62989
345.483	559.75581
345.806	562.94414
346.13	584.18248
346.453	566.13178
346.776	554.44043
347.099	590.54827
347.423	599.03194
347.746	559.75581
348.069	567.19418
348.392	584.18248
348.715	566.13178
349.038	569.31875
349.361	582.05997
349.683	583.12126
350.006	552.31374
350.329	540.61148
350.652	541.6757
350.974	568.25651
351.297	589.48748
351.619	574.62889
351.942	578.87566
352.264	569.31875
352.587	558.69289
352.909	566.13178
353.231	572.50506
353.554	573.56701
353.876	574.62889
354.198	577.81408
354.52	584.18248
354.842	597.97173
355.164	584.18248
355.486	585.24363
355.808	594.79068
356.13	576.75242
356.452	600.09208
356.773	590.54827
357.095	532.09483
357.417	533.15969
357.738	576.75242
358.06	597.97173
358.381	560.81866
358.703	545.93185
359.024	569.31875
359.346	575.69069
359.667	558.69289
359.988	556.56681
360.309	593.73018
360.631	601.15215
360.952	602.21215
361.273	584.18248
361.594	592.66961
361.915	601.15215
362.236	572.50506
362.557	568.25651
362.878	594.79068
363.198	608.57064
363.519	589.48748
363.84	588.42663
364.16	572.50506
364.481	560.81866
364.802	564.00676
365.122	560.81866
365.443	572.50506
365.763	564.00676
366.083	573.56701
366.404	580.99861
366.724	580.99861
367.044	603.27207
367.364	586.3047
367.685	565.06931
368.005	565.06931
368.325	540.61148
368.645	522.50757
368.965	572.50506
369.284	587.3657
369.604	557.62989
369.924	565.06931
370.244	605.39171
370.564	582.05997
370.883	546.99569
371.203	542.73986
371.522	556.56681
371.842	606.45143
372.161	591.60898
372.481	574.62889
372.8	591.60898
373.119	586.3047
373.439	556.56681
373.758	529.96488
374.077	558.69289
374.396	586.3047
374.715	561.88144
375.034	556.56681
375.353	567.19418
375.672	555.50366
375.991	560.81866
376.31	560.81866
376.629	566.13178
376.948	576.75242
377.266	567.19418
377.585	604.33193
377.904	628.68935
378.222	591.60898
378.541	561.88144
378.859	544.86793
379.178	554.44043
379.496	553.37712
379.814	536.35378
380.133	544.86793
380.451	535.28916
380.769	546.99569
381.087	559.75581
381.405	552.31374
381.723	567.19418
382.041	573.56701
382.359	566.13178
382.677	564.00676
382.995	554.44043
383.313	553.37712
383.631	582.05997
383.949	586.3047
384.266	566.13178
384.584	546.99569
384.901	539.54717
385.219	552.31374
385.537	555.50366
385.854	570.38093
386.171	588.42663
386.489	567.19418
386.806	573.56701
387.123	587.3657
387.441	576.75242
387.758	585.24363
388.075	572.50506
388.392	574.62889
388.709	569.31875
389.026	529.96488
389.343	540.61148
389.66	557.62989
389.977	572.50506
390.294	584.18248
390.61	575.69069
390.927	586.3047
391.244	585.24363
391.56	564.00676
391.877	566.13178
392.193	544.86793
392.51	529.96488
392.826	542.73986
393.143	558.69289
393.459	578.87566
393.775	571.44303
394.092	565.06931
394.408	567.19418
394.724	566.13178
395.04	556.56681
395.356	559.75581
395.672	562.94414
395.988	576.75242
396.304	574.62889
396.62	573.56701
396.936	597.97173
397.252	560.81866
397.567	548.05945
397.883	565.06931
398.199	565.06931
398.514	584.18248
398.83	584.18248
399.146	579.93717
399.461	583.12126
399.777	580.99861
400.092	579.93717
400.407	553.37712
400.723	545.93185
401.038	550.18675
401.353	577.81408
401.668	578.87566
401.983	543.80393
402.298	575.69069
402.613	582.05997
402.928	549.12314
403.243	537.41832
403.558	549.12314
403.873	587.3657
404.188	554.44043
404.503	528.89979
404.817	561.88144
405.132	578.87566
405.447	577.81408
405.761	588.42663
406.076	587.3657
406.39	554.44043
406.705	556.56681
407.019	589.48748
407.334	588.42663
407.648	579.93717
407.962	567.19418
408.276	540.61148
408.591	554.44043
408.905	569.31875
409.219	565.06931
409.533	562.94414
409.847	566.13178
410.161	575.69069
410.475	587.3657
410.789	571.44303
411.102	560.81866
411.416	607.51107
411.73	636.09528
412.044	583.12126
412.357	538.48278
412.671	545.93185
412.984	549.12314
413.298	562.94414
413.611	593.73018
413.925	609.63015
414.238	603.27207
414.552	585.24363
414.865	575.69069
415.178	569.31875
415.491	587.3657
415.804	601.15215
416.118	597.97173
416.431	590.54827
416.744	589.48748
417.057	572.50506
417.37	537.41832
417.683	570.38093
417.995	588.42663
418.308	560.81866
418.621	555.50366
418.934	553.37712
419.246	564.00676
419.559	570.38093
419.872	566.13178
420.184	584.18248
420.497	582.05997
420.809	576.75242
421.121	596.91145
421.434	599.03194
421.746	589.48748
422.058	578.87566
422.371	577.81408
422.683	554.44043
422.995	533.15969
423.307	538.48278
423.619	544.86793
423.931	536.35378
424.243	561.88144
424.555	561.88144
424.867	564.00676
425.179	591.60898
425.491	548.05945
425.802	545.93185
426.114	559.75581
426.426	549.12314
426.737	544.86793
427.049	566.13178
427.361	586.3047
427.672	559.75581
427.984	549.12314
428.295	552.31374
428.606	555.50366
428.918	583.12126
429.229	617.04472
429.54	601.15215
429.851	584.18248
430.163	603.27207
430.474	599.03194
430.785	583.12126
431.096	587.3657
431.407	588.42663
431.718	572.50506
432.029	600.09208
432.339	592.66961
432.65	588.42663
432.961	585.24363
433.272	552.31374
433.582	551.25029
433.893	571.44303
434.204	560.81866
434.514	536.35378
434.825	573.56701
435.135	585.24363
435.446	604.33193
435.756	611.74894
436.066	572.50506
436.377	575.69069
436.687	582.05997
436.997	559.75581
437.307	569.31875
437.617	569.31875
437.927	568.25651
438.237	552.31374
438.547	565.06931
438.857	576.75242
439.167	554.44043
439.477	574.62889
439.787	578.87566
440.097	565.06931
440.407	554.44043
440.716	545.93185
441.026	574.62889
441.336	595.8511
441.645	574.62889
441.955	572.50506
442.264	562.94414
442.574	556.56681
442.883	559.75581
443.192	565.06931
443.502	585.24363
443.811	599.03194
444.12	588.42663
444.429	553.37712
444.739	561.88144
445.048	597.97173
445.357	602.21215
445.666	588.42663
445.975	572.50506
446.284	555.50366
446.593	551.25029
446.901	561.88144
447.21	571.44303
447.519	573.56701
447.828	583.12126
448.136	573.56701
448.445	572.50506
448.754	572.50506
449.062	557.62989
449.371	587.3657
449.679	577.81408
449.988	552.31374
450.296	555.50366
450.605	554.44043
450.913	557.62989
451.221	614.92662
451.529	644.55518
451.838	579.93717
452.146	566.13178
452.454	567.19418
452.762	582.05997
453.07	592.66961
453.378	575.69069
453.686	587.3657
453.994	615.9857
454.302	615.9857
454.609	564.00676
454.917	580.99861
455.225	600.09208
455.533	564.00676
455.84	543.80393
456.148	529.96488
456.455	551.25029
456.763	576.75242
457.07	571.44303
457.378	579.93717
457.685	575.69069
457.993	559.75581
458.3	570.38093
458.607	590.54827
458.915	588.42663
459.222	569.31875
459.529	572.50506
459.836	578.87566
460.143	558.69289
460.45	528.89979
460.757	541.6757
461.064	586.3047
461.371	588.42663
461.678	572.50506
461.985	560.81866
462.292	569.31875
462.598	568.25651
462.905	571.44303
463.212	606.45143
463.518	587.3657
463.825	538.48278
464.131	592.66961
464.438	606.45143
464.744	544.86793
465.051	550.18675
465.357	561.88144
465.664	562.94414
465.97	558.69289
466.276	582.05997
466.582	607.51107
466.889	599.03194
467.195	578.87566
467.501	571.44303
467.807	573.56701
468.113	551.25029
468.419	540.61148
468.725	557.62989
469.031	549.12314
469.337	576.75242
469.642	608.57064
469.948	594.79068
470.254	587.3657
470.56	567.19418
470.865	567.19418
471.171	567.19418
471.477	552.31374
471.782	560.81866
472.088	568.25651
472.393	588.42663
472.698	602.21215
473.004	575.69069
473.309	580.99861
473.614	575.69069
473.92	553.37712
474.225	560.81866
474.53	560.81866
474.835	562.94414
475.14	569.31875
475.445	573.56701
475.75	577.81408
476.055	586.3047
476.36	579.93717
476.665	583.12126
476.97	585.24363
477.275	608.57064
477.58	630.80567
477.885	572.50506
478.189	552.31374
478.494	571.44303
478.799	584.18248
479.103	579.93717
479.408	574.62889
479.712	584.18248
480.017	584.18248
480.321	580.99861
480.625	550.18675
480.93	560.81866
481.234	562.94414
481.538	553.37712
481.843	568.25651
482.147	577.81408
482.451	573.56701
482.755	565.06931
483.059	556.56681
483.363	569.31875
483.667	574.62889
483.971	552.31374
484.275	545.93185
484.579	565.06931
484.883	567.19418
485.187	545.93185
485.49	562.94414
485.794	583.12126
486.098	567.19418
486.401	540.61148
486.705	539.54717
487.009	543.80393
487.312	554.44043
487.616	590.54827
487.919	607.51107
488.222	578.87566
488.526	574.62889
488.829	592.66961
489.132	615.9857
489.436	599.03194
489.739	565.06931
490.042	579.93717
490.345	603.27207
490.648	607.51107
490.951	583.12126
491.254	550.18675
491.557	555.50366
491.86	579.93717
492.163	584.18248
492.466	571.44303
492.769	574.62889
493.072	577.81408
493.375	555.50366
493.677	600.09208
493.98	611.74894
494.283	576.75242
494.585	592.66961
494.888	573.56701
495.19	586.3047
495.493	601.15215
495.795	561.88144
496.098	550.18675
496.4	548.05945
496.702	573.56701
497.005	591.60898
497.307	595.8511
497.609	595.8511
497.911	587.3657
498.213	592.66961
498.515	586.3047
498.818	580.99861
499.12	574.62889
499.422	578.87566
499.723	587.3657
500.025	622.33876
500.327	592.66961
500.629	571.44303
500.931	586.3047
501.233	574.62889
501.534	588.42663
501.836	569.31875
502.138	541.6757
502.439	538.48278
502.741	538.48278
503.042	558.69289
503.344	574.62889
503.645	607.51107
503.947	585.24363
504.248	536.35378
504.55	546.99569
504.851	560.81866
505.152	567.19418
505.453	570.38093
505.755	573.56701
506.056	564.00676
506.357	555.50366
506.658	551.25029
506.959	552.31374
507.26	564.00676
507.561	577.81408
507.862	566.13178
508.163	564.00676
508.464	565.06931
508.764	573.56701
509.065	589.48748
509.366	606.45143
509.667	590.54827
509.967	551.25029
510.268	528.89979
510.569	548.05945
510.869	594.79068
511.17	593.73018
511.47	578.87566
511.771	564.00676
512.071	564.00676
512.371	556.56681
512.672	540.61148
512.972	555.50366
513.272	579.93717
513.573	588.42663
513.873	572.50506
514.173	562.94414
514.473	558.69289
514.773	584.18248
515.073	602.21215
515.373	588.42663
515.673	556.56681
515.973	524.63863
516.273	539.54717
516.573	554.44043
516.873	561.88144
517.172	575.69069
517.472	557.62989
517.772	541.6757
518.072	562.94414
518.371	582.05997
518.671	592.66961
518.97	580.99861
519.27	569.31875
519.569	550.18675
519.869	560.81866
520.168	594.79068
520.468	573.56701
520.767	568.25651
521.066	579.93717
521.366	580.99861
521.665	592.66961
521.964	576.75242
522.263	560.81866
522.562	564.00676
522.861	561.88144
523.161	557.62989
523.46	568.25651
523.759	590.54827
524.057	588.42663
524.356	571.44303
524.655	532.09483
524.954	536.35378
525.253	583.12126
525.552	578.87566
525.85	562.94414
526.149	575.69069
526.448	588.42663
526.746	560.81866
527.045	549.12314
527.344	580.99861
527.642	603.27207
527.941	611.74894
528.239	611.74894
528.537	596.91145
528.836	573.56701
529.134	590.54827
529.432	586.3047
529.731	555.50366
530.029	573.56701
530.327	584.18248
530.625	571.44303
530.923	528.89979
531.221	527.83462
531.52	560.81866
531.818	564.00676
532.116	592.66961
532.413	580.99861
532.711	559.75581
533.009	572.50506
533.307	582.05997
533.605	585.24363
533.903	576.75242
534.2	562.94414
534.498	565.06931
534.796	583.12126
535.093	564.00676
535.391	540.61148
535.689	570.38093
535.986	576.75242
536.284	565.06931
536.581	589.48748
536.878	564.00676
537.176	573.56701
537.473	584.18248
537.77	549.12314
538.068	546.99569
538.365	562.94414
538.662	589.48748
538.959	586.3047
539.256	557.62989
539.554	566.13178
