Data from dark_beginning_ST026791__174__1272.txt Node

Date: Mon Aug 18 22:11:28 AEST 2025
User: mathewyoussef
Spectrometer: ST02679
Trigger mode: 0
Integration Time (sec): 6.653700E-1
Scans to average: 1
Nonlinearity correction enabled: true
Boxcar width: 0
Storing dark spectrum: false
XAxis mode: Wavelengths
Number of Pixels in Spectrum: 1516
>>>>>Begin Spectral Data<<<<<
187.304	565.06931
187.653	567.19418
188.002	559.75581
188.351	558.69289
188.7	588.42663
189.048	597.97173
189.397	586.3047
189.746	569.31875
190.094	592.66961
190.443	586.3047
190.791	556.56681
191.14	572.50506
191.488	578.87566
191.837	584.18248
192.185	591.60898
192.533	593.73018
192.881	575.69069
193.229	560.81866
193.577	568.25651
193.925	570.38093
194.273	572.50506
194.621	556.56681
194.969	564.00676
195.317	568.25651
195.664	577.81408
196.012	589.48748
196.359	553.37712
196.707	557.62989
197.054	576.75242
197.402	556.56681
197.749	540.61148
198.096	564.00676
198.443	573.56701
198.791	583.12126
199.138	583.12126
199.485	617.04472
199.832	637.15301
200.179	584.18248
200.525	575.69069
200.872	582.05997
201.219	575.69069
201.566	596.91145
201.912	619.16254
202.259	606.45143
202.605	573.56701
202.952	552.31374
203.298	552.31374
203.644	559.75581
203.991	565.06931
204.337	564.00676
204.683	546.99569
205.029	541.6757
205.375	576.75242
205.721	615.9857
206.067	615.9857
206.413	593.73018
206.759	568.25651
207.104	570.38093
207.45	558.69289
207.796	561.88144
208.141	577.81408
208.487	564.00676
208.832	567.19418
209.177	564.00676
209.523	556.56681
209.868	553.37712
210.213	565.06931
210.558	579.93717
210.903	574.62889
211.248	573.56701
211.593	560.81866
211.938	543.80393
212.283	568.25651
212.628	561.88144
212.973	542.73986
213.317	571.44303
213.662	589.48748
214.007	575.69069
214.351	576.75242
214.696	591.60898
215.04	590.54827
215.384	590.54827
215.729	592.66961
216.073	579.93717
216.417	573.56701
216.761	591.60898
217.105	619.16254
217.449	597.97173
217.793	571.44303
218.137	577.81408
218.481	580.99861
218.824	602.21215
219.168	560.81866
219.512	544.86793
219.855	588.42663
220.199	566.13178
220.542	529.96488
220.886	571.44303
221.229	611.74894
221.572	577.81408
221.916	580.99861
222.259	573.56701
222.602	554.44043
222.945	571.44303
223.288	567.19418
223.631	561.88144
223.974	552.31374
224.317	552.31374
224.659	557.62989
225.002	561.88144
225.345	577.81408
225.687	567.19418
226.03	556.56681
226.372	566.13178
226.715	587.3657
227.057	603.27207
227.4	587.3657
227.742	596.91145
228.084	597.97173
228.426	601.15215
228.768	613.86746
229.11	600.09208
229.452	591.60898
229.794	586.3047
230.136	561.88144
230.478	571.44303
230.82	579.93717
231.161	578.87566
231.503	623.39736
231.845	628.68935
232.186	636.09528
232.528	624.4559
232.869	569.31875
233.21	560.81866
233.552	584.18248
233.893	582.05997
234.234	555.50366
234.575	562.94414
234.916	602.21215
235.257	587.3657
235.598	561.88144
235.939	574.62889
236.28	582.05997
236.621	578.87566
236.961	596.91145
237.302	612.80824
237.643	571.44303
237.983	553.37712
238.324	578.87566
238.664	621.28009
239.005	612.80824
239.345	589.48748
239.685	601.15215
240.025	564.00676
240.366	570.38093
240.706	570.38093
241.046	529.96488
241.386	533.15969
241.726	553.37712
242.066	562.94414
242.405	556.56681
242.745	564.00676
243.085	590.54827
243.425	612.80824
243.764	588.42663
244.104	603.27207
244.443	629.74755
244.783	588.42663
245.122	560.81866
245.461	557.62989
245.801	595.8511
246.14	603.27207
246.479	564.00676
246.818	561.88144
247.157	597.97173
247.496	589.48748
247.835	554.44043
248.174	568.25651
248.513	595.8511
248.852	625.51436
249.19	607.51107
249.529	577.81408
249.868	585.24363
250.206	593.73018
250.545	580.99861
250.883	585.24363
251.221	583.12126
251.56	564.00676
251.898	565.06931
252.236	582.05997
252.574	592.66961
252.912	568.25651
253.25	556.56681
253.588	570.38093
253.926	584.18248
254.264	564.00676
254.602	534.22446
254.94	556.56681
255.278	565.06931
255.615	555.50366
255.953	583.12126
256.29	594.79068
256.628	562.94414
256.965	557.62989
257.303	560.81866
257.64	607.51107
257.977	609.63015
258.314	579.93717
258.652	593.73018
258.989	592.66961
259.326	602.21215
259.663	568.25651
260	559.75581
260.337	561.88144
260.673	574.62889
261.01	582.05997
261.347	552.31374
261.684	569.31875
262.02	596.91145
262.357	576.75242
262.693	558.69289
263.03	578.87566
263.366	568.25651
263.702	552.31374
264.039	595.8511
264.375	595.8511
264.711	568.25651
265.047	590.54827
265.383	603.27207
265.719	583.12126
266.055	578.87566
266.391	595.8511
266.727	593.73018
267.063	597.97173
267.399	599.03194
267.734	570.38093
268.07	561.88144
268.405	587.3657
268.741	580.99861
269.076	582.05997
269.412	586.3047
269.747	573.56701
270.082	591.60898
270.418	614.92662
270.753	603.27207
271.088	571.44303
271.423	571.44303
271.758	564.00676
272.093	572.50506
272.428	602.21215
272.763	568.25651
273.098	553.37712
273.433	580.99861
273.767	594.79068
274.102	571.44303
274.436	552.31374
274.771	568.25651
275.106	589.48748
275.44	595.8511
275.774	572.50506
276.109	556.56681
276.443	565.06931
276.777	560.81866
277.111	554.44043
277.445	570.38093
277.78	602.21215
278.114	605.39171
278.447	575.69069
278.781	565.06931
279.115	569.31875
279.449	543.80393
279.783	553.37712
280.116	569.31875
280.45	572.50506
280.784	617.04472
281.117	620.22135
281.451	580.99861
281.784	607.51107
282.117	607.51107
282.451	556.56681
282.784	562.94414
283.117	596.91145
283.45	611.74894
283.783	583.12126
284.116	574.62889
284.449	566.13178
284.782	594.79068
285.115	596.91145
285.448	541.6757
285.781	567.19418
286.114	584.18248
286.446	574.62889
286.779	586.3047
287.111	561.88144
287.444	542.73986
287.776	557.62989
288.109	589.48748
288.441	596.91145
288.773	588.42663
289.106	605.39171
289.438	586.3047
289.77	555.50366
290.102	578.87566
290.434	589.48748
290.766	602.21215
291.098	605.39171
291.43	584.18248
291.762	577.81408
292.094	567.19418
292.425	546.99569
292.757	541.6757
293.089	584.18248
293.42	583.12126
293.752	569.31875
294.083	562.94414
294.414	554.44043
294.746	572.50506
295.077	579.93717
295.408	621.28009
295.74	631.86373
296.071	585.24363
296.402	569.31875
296.733	570.38093
297.064	553.37712
297.395	541.6757
297.726	549.12314
298.056	569.31875
298.387	586.3047
298.718	596.91145
299.049	620.22135
299.379	605.39171
299.71	579.93717
300.04	565.06931
300.371	539.54717
300.701	540.61148
301.031	562.94414
301.362	553.37712
301.692	559.75581
302.022	580.99861
302.352	559.75581
302.682	573.56701
303.012	591.60898
303.342	591.60898
303.672	565.06931
304.002	551.25029
304.332	572.50506
304.662	600.09208
304.992	587.3657
305.321	558.69289
305.651	573.56701
305.98	584.18248
306.31	568.25651
306.639	546.99569
306.969	553.37712
307.298	569.31875
307.628	586.3047
307.957	589.48748
308.286	600.09208
308.615	592.66961
308.944	577.81408
309.273	559.75581
309.602	549.12314
309.931	577.81408
310.26	577.81408
310.589	556.56681
310.918	567.19418
311.247	568.25651
311.575	564.00676
311.904	593.73018
312.233	602.21215
312.561	589.48748
312.89	579.93717
313.218	582.05997
313.546	578.87566
313.875	571.44303
314.203	546.99569
314.531	551.25029
314.859	571.44303
315.188	556.56681
315.516	571.44303
315.844	594.79068
316.172	610.68958
316.5	573.56701
316.827	566.13178
317.155	601.15215
317.483	601.15215
317.811	573.56701
318.138	539.54717
318.466	553.37712
318.794	567.19418
319.121	562.94414
319.449	569.31875
319.776	566.13178
320.103	549.12314
320.431	551.25029
320.758	566.13178
321.085	578.87566
321.412	570.38093
321.739	557.62989
322.066	567.19418
322.393	551.25029
322.72	543.80393
323.047	566.13178
323.374	568.25651
323.701	560.81866
324.028	580.99861
324.354	584.18248
324.681	576.75242
325.008	588.42663
325.334	558.69289
325.661	561.88144
325.987	605.39171
326.314	611.74894
326.64	575.69069
326.966	558.69289
327.293	558.69289
327.619	573.56701
327.945	579.93717
328.271	569.31875
328.597	570.38093
328.923	579.93717
329.249	582.05997
329.575	576.75242
329.901	582.05997
330.227	587.3657
330.552	589.48748
330.878	564.00676
331.204	557.62989
331.529	556.56681
331.855	580.99861
332.18	605.39171
332.506	574.62889
332.831	566.13178
333.156	587.3657
333.482	574.62889
333.807	551.25029
334.132	537.41832
334.457	580.99861
334.782	590.54827
335.107	585.24363
335.432	607.51107
335.757	573.56701
336.082	542.73986
336.407	535.28916
336.732	549.12314
337.057	583.12126
337.381	586.3047
337.706	550.18675
338.031	549.12314
338.355	548.05945
338.68	556.56681
339.004	588.42663
339.329	587.3657
339.653	579.93717
339.977	569.31875
340.301	544.86793
340.626	532.09483
340.95	580.99861
341.274	611.74894
341.598	583.12126
341.922	582.05997
342.246	587.3657
342.57	580.99861
342.894	564.00676
343.218	560.81866
343.541	542.73986
343.865	539.54717
344.189	561.88144
344.512	537.41832
344.836	559.75581
345.159	588.42663
345.483	565.06931
345.806	583.12126
346.13	582.05997
346.453	559.75581
346.776	555.50366
347.099	575.69069
347.423	585.24363
347.746	561.88144
348.069	558.69289
348.392	574.62889
348.715	579.93717
349.038	570.38093
349.361	556.56681
349.683	564.00676
350.006	550.18675
350.329	552.31374
350.652	591.60898
350.974	577.81408
351.297	561.88144
351.619	570.38093
351.942	589.48748
352.264	588.42663
352.587	593.73018
352.909	587.3657
353.231	544.86793
353.554	571.44303
353.876	596.91145
354.198	583.12126
354.52	557.62989
354.842	568.25651
355.164	596.91145
355.486	566.13178
355.808	572.50506
356.13	601.15215
356.452	614.92662
356.773	622.33876
357.095	591.60898
357.417	573.56701
357.738	590.54827
358.06	594.79068
358.381	578.87566
358.703	549.12314
359.024	551.25029
359.346	577.81408
359.667	564.00676
359.988	550.18675
360.309	556.56681
360.631	569.31875
360.952	602.21215
361.273	586.3047
361.594	575.69069
361.915	604.33193
362.236	569.31875
362.557	542.73986
362.878	564.00676
363.198	570.38093
363.519	556.56681
363.84	552.31374
364.16	544.86793
364.481	552.31374
364.802	553.37712
365.122	553.37712
365.443	557.62989
365.763	559.75581
366.083	590.54827
366.404	585.24363
366.724	600.09208
367.044	603.27207
367.364	568.25651
367.685	541.6757
368.005	552.31374
368.325	570.38093
368.645	557.62989
368.965	543.80393
369.284	553.37712
369.604	562.94414
369.924	556.56681
370.244	582.05997
370.564	576.75242
370.883	542.73986
371.203	568.25651
371.522	593.73018
371.842	582.05997
372.161	596.91145
372.481	571.44303
372.8	568.25651
373.119	597.97173
373.439	588.42663
373.758	565.06931
374.077	535.28916
374.396	541.6757
374.715	544.86793
375.034	548.05945
375.353	585.24363
375.672	576.75242
375.991	531.0299
376.31	544.86793
376.629	565.06931
376.948	569.31875
377.266	573.56701
377.585	569.31875
377.904	569.31875
378.222	561.88144
378.541	543.80393
378.859	560.81866
379.178	575.69069
379.496	544.86793
379.814	561.88144
380.133	574.62889
380.451	559.75581
380.769	555.50366
381.087	556.56681
381.405	572.50506
381.723	571.44303
382.041	567.19418
382.359	576.75242
382.677	593.73018
382.995	585.24363
383.313	551.25029
383.631	564.00676
383.949	583.12126
384.266	565.06931
384.584	553.37712
384.901	536.35378
385.219	542.73986
385.537	575.69069
385.854	564.00676
386.171	574.62889
386.489	590.54827
386.806	577.81408
387.123	585.24363
387.441	577.81408
387.758	561.88144
388.075	575.69069
388.392	606.45143
388.709	574.62889
389.026	561.88144
389.343	583.12126
389.66	593.73018
389.977	590.54827
390.294	556.56681
390.61	585.24363
390.927	626.57276
391.244	595.8511
391.56	541.6757
391.877	541.6757
392.193	552.31374
392.51	548.05945
392.826	558.69289
393.143	596.91145
393.459	582.05997
393.775	539.54717
394.092	555.50366
394.408	571.44303
394.724	573.56701
395.04	545.93185
395.356	566.13178
395.672	592.66961
395.988	591.60898
396.304	593.73018
396.62	575.69069
396.936	584.18248
397.252	587.3657
397.567	559.75581
397.883	573.56701
398.199	578.87566
398.514	534.22446
398.83	560.81866
399.146	608.57064
399.461	617.04472
399.777	571.44303
400.092	546.99569
400.407	595.8511
400.723	602.21215
401.038	546.99569
401.353	543.80393
401.668	566.13178
401.983	568.25651
402.298	587.3657
402.613	580.99861
402.928	571.44303
403.243	542.73986
403.558	519.31038
403.873	556.56681
404.188	551.25029
404.503	537.41832
404.817	557.62989
405.132	567.19418
405.447	577.81408
405.761	591.60898
406.076	596.91145
406.39	599.03194
406.705	590.54827
407.019	568.25651
407.334	568.25651
407.648	584.18248
407.962	586.3047
408.276	569.31875
408.591	560.81866
408.905	557.62989
409.219	584.18248
409.533	587.3657
409.847	583.12126
410.161	582.05997
410.475	576.75242
410.789	584.18248
411.102	579.93717
411.416	613.86746
411.73	592.66961
412.044	570.38093
412.357	604.33193
412.671	591.60898
412.984	579.93717
413.298	584.18248
413.611	590.54827
413.925	595.8511
414.238	557.62989
414.552	536.35378
414.865	554.44043
415.178	595.8511
415.491	608.57064
415.804	613.86746
416.118	594.79068
416.431	561.88144
416.744	567.19418
417.057	558.69289
417.37	578.87566
417.683	576.75242
417.995	572.50506
418.308	582.05997
418.621	569.31875
418.934	540.61148
419.246	572.50506
419.559	615.9857
419.872	562.94414
420.184	527.83462
420.497	531.0299
420.809	539.54717
421.121	589.48748
421.434	588.42663
421.746	542.73986
422.058	551.25029
422.371	566.13178
422.683	578.87566
422.995	568.25651
423.307	554.44043
423.619	575.69069
423.931	554.44043
424.243	543.80393
424.555	585.24363
424.867	600.09208
425.179	601.15215
425.491	589.48748
425.802	565.06931
426.114	541.6757
426.426	533.15969
426.737	552.31374
427.049	590.54827
427.361	640.32577
427.672	611.74894
427.984	561.88144
428.295	575.69069
428.606	551.25029
428.918	553.37712
429.229	612.80824
429.54	595.8511
429.851	571.44303
430.163	592.66961
430.474	585.24363
430.785	599.03194
431.096	592.66961
431.407	573.56701
431.718	577.81408
432.029	603.27207
432.339	577.81408
432.65	552.31374
432.961	579.93717
433.272	574.62889
433.582	569.31875
433.893	560.81866
434.204	526.76937
434.514	538.48278
434.825	583.12126
435.135	600.09208
435.446	635.0375
435.756	610.68958
436.066	541.6757
436.377	558.69289
436.687	565.06931
436.997	553.37712
437.307	554.44043
437.617	544.86793
437.927	542.73986
438.237	545.93185
438.547	543.80393
438.857	548.05945
439.167	591.60898
439.477	612.80824
439.787	584.18248
440.097	565.06931
440.407	555.50366
440.716	545.93185
441.026	559.75581
441.336	600.09208
441.645	596.91145
441.955	550.18675
442.264	558.69289
442.574	587.3657
442.883	610.68958
443.192	590.54827
443.502	574.62889
443.811	592.66961
444.12	560.81866
444.429	548.05945
444.739	557.62989
445.048	551.25029
445.357	569.31875
445.666	577.81408
445.975	578.87566
446.284	568.25651
446.593	573.56701
446.901	594.79068
447.21	580.99861
447.519	560.81866
447.828	576.75242
448.136	589.48748
448.445	564.00676
448.754	565.06931
449.062	584.18248
449.371	582.05997
449.679	560.81866
449.988	552.31374
450.296	565.06931
450.605	545.93185
450.913	566.13178
451.221	649.84046
451.529	628.68935
451.838	583.12126
452.146	588.42663
452.454	561.88144
452.762	584.18248
453.07	571.44303
453.378	564.00676
453.686	609.63015
453.994	610.68958
454.302	565.06931
454.609	555.50366
454.917	579.93717
455.225	589.48748
455.533	572.50506
455.84	542.73986
456.148	572.50506
456.455	564.00676
456.763	544.86793
457.07	567.19418
457.378	570.38093
457.685	565.06931
457.993	572.50506
458.3	568.25651
458.607	553.37712
458.915	571.44303
459.222	568.25651
459.529	557.62989
459.836	561.88144
460.143	545.93185
460.45	551.25029
460.757	556.56681
461.064	556.56681
461.371	564.00676
461.678	571.44303
461.985	591.60898
462.292	596.91145
462.598	577.81408
462.905	565.06931
463.212	595.8511
463.518	611.74894
463.825	583.12126
464.131	622.33876
464.438	607.51107
464.744	542.73986
465.051	561.88144
465.357	585.24363
465.664	573.56701
465.97	551.25029
466.276	551.25029
466.582	576.75242
466.889	582.05997
467.195	564.00676
467.501	593.73018
467.807	610.68958
468.113	587.3657
468.419	580.99861
468.725	564.00676
469.031	550.18675
469.337	602.21215
469.642	592.66961
469.948	567.19418
470.254	564.00676
470.56	542.73986
470.865	537.41832
471.171	526.76937
471.477	576.75242
471.782	595.8511
472.088	558.69289
472.393	595.8511
472.698	621.28009
473.004	575.69069
473.309	546.99569
473.614	551.25029
473.92	568.25651
474.225	593.73018
474.53	624.4559
474.835	589.48748
475.14	576.75242
475.445	592.66961
475.75	587.3657
476.055	584.18248
476.36	573.56701
476.665	586.3047
476.97	601.15215
477.275	593.73018
477.58	594.79068
477.885	582.05997
478.189	577.81408
478.494	571.44303
478.799	553.37712
479.103	574.62889
479.408	576.75242
479.712	584.18248
480.017	583.12126
480.321	564.00676
480.625	567.19418
480.93	572.50506
481.234	558.69289
481.538	570.38093
481.843	539.54717
482.147	546.99569
482.451	567.19418
482.755	544.86793
483.059	582.05997
483.363	589.48748
483.667	569.31875
483.971	571.44303
484.275	571.44303
484.579	560.81866
484.883	555.50366
485.187	555.50366
485.49	579.93717
485.794	579.93717
486.098	556.56681
486.401	553.37712
486.705	552.31374
487.009	551.25029
487.312	587.3657
487.616	602.21215
487.919	595.8511
488.222	584.18248
488.526	585.24363
488.829	606.45143
489.132	575.69069
489.436	545.93185
489.739	550.18675
490.042	573.56701
490.345	593.73018
490.648	586.3047
490.951	587.3657
491.254	599.03194
491.557	599.03194
491.86	584.18248
492.163	557.62989
492.466	542.73986
492.769	549.12314
493.072	560.81866
493.375	587.3657
493.677	587.3657
493.98	560.81866
494.283	558.69289
494.585	569.31875
494.888	568.25651
495.19	570.38093
495.493	575.69069
495.795	586.3047
496.098	605.39171
496.4	591.60898
496.702	561.88144
497.005	585.24363
497.307	632.92172
497.609	607.51107
497.911	572.50506
498.213	576.75242
498.515	572.50506
498.818	566.13178
499.12	570.38093
499.422	566.13178
499.723	584.18248
500.025	607.51107
500.327	577.81408
500.629	555.50366
500.931	548.05945
501.233	557.62989
501.534	567.19418
501.836	553.37712
502.138	584.18248
502.439	599.03194
502.741	599.03194
503.042	570.38093
503.344	548.05945
503.645	584.18248
503.947	559.75581
504.248	568.25651
504.55	613.86746
504.851	610.68958
505.152	592.66961
505.453	576.75242
505.755	580.99861
506.056	564.00676
506.357	559.75581
506.658	577.81408
506.959	588.42663
507.26	587.3657
507.561	588.42663
507.862	586.3047
508.163	546.99569
508.464	533.15969
508.764	562.94414
509.065	568.25651
509.366	590.54827
509.667	583.12126
509.967	548.05945
510.268	564.00676
510.569	579.93717
510.869	568.25651
511.17	560.81866
511.47	577.81408
511.771	568.25651
512.071	557.62989
512.371	571.44303
512.672	604.33193
512.972	584.18248
513.272	555.50366
513.573	572.50506
513.873	550.18675
514.173	546.99569
514.473	571.44303
514.773	577.81408
515.073	605.39171
515.373	586.3047
515.673	560.81866
515.973	571.44303
516.273	567.19418
516.573	569.31875
516.873	543.80393
517.172	538.48278
517.472	556.56681
517.772	575.69069
518.072	565.06931
518.371	572.50506
518.671	593.73018
518.97	569.31875
519.27	584.18248
519.569	583.12126
519.869	589.48748
520.168	590.54827
520.468	555.50366
520.767	560.81866
521.066	582.05997
521.366	582.05997
521.665	569.31875
521.964	555.50366
522.263	585.24363
522.562	613.86746
522.861	580.99861
523.161	559.75581
523.46	557.62989
523.759	583.12126
524.057	584.18248
524.356	551.25029
524.655	556.56681
524.954	539.54717
525.253	555.50366
525.552	594.79068
525.85	599.03194
526.149	594.79068
526.448	548.05945
526.746	548.05945
527.045	602.21215
527.344	628.68935
527.642	625.51436
527.941	614.92662
528.239	587.3657
528.537	577.81408
528.836	597.97173
529.134	569.31875
529.432	562.94414
529.731	593.73018
530.029	587.3657
530.327	586.3047
530.625	577.81408
530.923	549.12314
531.221	551.25029
531.52	580.99861
531.818	579.93717
532.116	570.38093
532.413	569.31875
532.711	545.93185
533.009	575.69069
533.307	597.97173
533.605	592.66961
533.903	572.50506
534.2	565.06931
534.498	570.38093
534.796	602.21215
535.093	619.16254
535.391	571.44303
535.689	560.81866
535.986	575.69069
536.284	585.24363
536.581	571.44303
536.878	548.05945
537.176	545.93185
537.473	562.94414
537.77	606.45143
538.068	605.39171
538.365	593.73018
538.662	605.39171
538.959	584.18248
539.256	566.13178
539.554	575.69069
539.851	583.12126
