Data from dark_beginning_ST026791__118__1216.txt Node

Date: Mon Aug 18 22:10:12 AEST 2025
User: mathewyoussef
Spectrometer: ST02679
Trigger mode: 0
Integration Time (sec): 6.653700E-1
Scans to average: 1
Nonlinearity correction enabled: true
Boxcar width: 0
Storing dark spectrum: false
XAxis mode: Wavelengths
Number of Pixels in Spectrum: 1516
>>>>>Begin Spectral Data<<<<<
187.304	619.16254
187.653	609.63015
188.002	597.97173
188.351	570.38093
188.7	566.13178
189.048	595.8511
189.397	579.93717
189.746	542.73986
190.094	543.80393
190.443	577.81408
190.791	582.05997
191.14	566.13178
191.488	574.62889
191.837	577.81408
192.185	583.12126
192.533	589.48748
192.881	574.62889
193.229	584.18248
193.577	605.39171
193.925	573.56701
194.273	567.19418
194.621	588.42663
194.969	584.18248
195.317	566.13178
195.664	567.19418
196.012	565.06931
196.359	561.88144
196.707	586.3047
197.054	580.99861
197.402	540.61148
197.749	551.25029
198.096	572.50506
198.443	573.56701
198.791	602.21215
199.138	603.27207
199.485	580.99861
199.832	569.31875
200.179	558.69289
200.525	575.69069
200.872	589.48748
201.219	584.18248
201.566	590.54827
201.912	582.05997
202.259	574.62889
202.605	576.75242
202.952	559.75581
203.298	545.93185
203.644	587.3657
203.991	594.79068
204.337	575.69069
204.683	574.62889
205.029	558.69289
205.375	567.19418
205.721	599.03194
206.067	588.42663
206.413	567.19418
206.759	565.06931
207.104	554.44043
207.45	579.93717
207.796	592.66961
208.141	588.42663
208.487	609.63015
208.832	608.57064
209.177	587.3657
209.523	576.75242
209.868	562.94414
210.213	580.99861
210.558	572.50506
210.903	566.13178
211.248	607.51107
211.593	612.80824
211.938	588.42663
212.283	576.75242
212.628	568.25651
212.973	568.25651
213.317	590.54827
213.662	567.19418
214.007	550.18675
214.351	557.62989
214.696	567.19418
215.04	560.81866
215.384	554.44043
215.729	570.38093
216.073	571.44303
216.417	558.69289
216.761	552.31374
217.105	566.13178
217.449	573.56701
217.793	577.81408
218.137	570.38093
218.481	575.69069
218.824	571.44303
219.168	550.18675
219.512	543.80393
219.855	552.31374
220.199	566.13178
220.542	556.56681
220.886	558.69289
221.229	566.13178
221.572	538.48278
221.916	542.73986
222.259	572.50506
222.602	552.31374
222.945	558.69289
223.288	575.69069
223.631	546.99569
223.974	546.99569
224.317	575.69069
224.659	588.42663
225.002	582.05997
225.345	578.87566
225.687	592.66961
226.03	601.15215
226.372	582.05997
226.715	583.12126
227.057	588.42663
227.4	579.93717
227.742	578.87566
228.084	585.24363
228.426	600.09208
228.768	594.79068
229.11	586.3047
229.452	559.75581
229.794	538.48278
230.136	542.73986
230.478	564.00676
230.82	573.56701
231.161	545.93185
231.503	573.56701
231.845	589.48748
232.186	586.3047
232.528	577.81408
232.869	557.62989
233.21	577.81408
233.552	582.05997
233.893	580.99861
234.234	576.75242
234.575	573.56701
234.916	584.18248
235.257	595.8511
235.598	593.73018
235.939	588.42663
236.28	568.25651
236.621	552.31374
236.961	602.21215
237.302	615.9857
237.643	593.73018
237.983	588.42663
238.324	562.94414
238.664	600.09208
239.005	609.63015
239.345	573.56701
239.685	575.69069
240.025	564.00676
240.366	546.99569
240.706	538.48278
241.046	553.37712
241.386	591.60898
241.726	585.24363
242.066	573.56701
242.405	566.13178
242.745	577.81408
243.085	607.51107
243.425	586.3047
243.764	590.54827
244.104	629.74755
244.443	609.63015
244.783	558.69289
245.122	562.94414
245.461	580.99861
245.801	589.48748
246.14	596.91145
246.479	590.54827
246.818	587.3657
247.157	593.73018
247.496	599.03194
247.835	578.87566
248.174	551.25029
248.513	577.81408
248.852	613.86746
249.19	600.09208
249.529	580.99861
249.868	580.99861
250.206	590.54827
250.545	580.99861
250.883	586.3047
251.221	588.42663
251.56	551.25029
251.898	564.00676
252.236	593.73018
252.574	585.24363
252.912	557.62989
253.25	543.80393
253.588	575.69069
253.926	605.39171
254.264	588.42663
254.602	571.44303
254.94	571.44303
255.278	578.87566
255.615	562.94414
255.953	538.48278
256.29	576.75242
256.628	592.66961
256.965	573.56701
257.303	574.62889
257.64	599.03194
257.977	595.8511
258.314	574.62889
258.652	577.81408
258.989	569.31875
259.326	553.37712
259.663	527.83462
260	548.05945
260.337	571.44303
260.673	577.81408
261.01	573.56701
261.347	568.25651
261.684	586.3047
262.02	589.48748
262.357	587.3657
262.693	587.3657
263.03	561.88144
263.366	557.62989
263.702	574.62889
264.039	588.42663
264.375	574.62889
264.711	571.44303
265.047	577.81408
265.383	558.69289
265.719	568.25651
266.055	592.66961
266.391	615.9857
266.727	589.48748
267.063	582.05997
267.399	594.79068
267.734	569.31875
268.07	573.56701
268.405	590.54827
268.741	589.48748
269.076	564.00676
269.412	569.31875
269.747	575.69069
270.082	548.05945
270.418	557.62989
270.753	571.44303
271.088	580.99861
271.423	549.12314
271.758	550.18675
272.093	582.05997
272.428	582.05997
272.763	586.3047
273.098	583.12126
273.433	575.69069
273.767	556.56681
274.102	573.56701
274.436	565.06931
274.771	561.88144
275.106	560.81866
275.44	573.56701
275.774	595.8511
276.109	591.60898
276.443	595.8511
276.777	594.79068
277.111	623.39736
277.445	610.68958
277.78	577.81408
278.114	557.62989
278.447	575.69069
278.781	584.18248
279.115	562.94414
279.449	576.75242
279.783	595.8511
280.116	611.74894
280.45	570.38093
280.784	532.09483
281.117	572.50506
281.451	617.04472
281.784	640.32577
282.117	615.9857
282.451	583.12126
282.784	589.48748
283.117	587.3657
283.45	573.56701
283.783	542.73986
284.116	551.25029
284.449	595.8511
284.782	622.33876
285.115	622.33876
285.448	584.18248
285.781	565.06931
286.114	558.69289
286.446	550.18675
286.779	582.05997
287.111	599.03194
287.444	586.3047
287.776	592.66961
288.109	572.50506
288.441	544.86793
288.773	553.37712
289.106	590.54827
289.438	600.09208
289.77	602.21215
290.102	615.9857
290.434	608.57064
290.766	633.97964
291.098	595.8511
291.43	551.25029
291.762	569.31875
292.094	566.13178
292.425	548.05945
292.757	562.94414
293.089	573.56701
293.42	541.6757
293.752	541.6757
294.083	560.81866
294.414	587.3657
294.746	585.24363
295.077	582.05997
295.408	597.97173
295.74	604.33193
296.071	572.50506
296.402	544.86793
296.733	569.31875
297.064	573.56701
297.395	579.93717
297.726	574.62889
298.056	595.8511
298.387	623.39736
298.718	597.97173
299.049	577.81408
299.379	561.88144
299.71	573.56701
300.04	596.91145
300.371	592.66961
300.701	566.13178
301.031	567.19418
301.362	593.73018
301.692	594.79068
302.022	576.75242
302.352	579.93717
302.682	597.97173
303.012	583.12126
303.342	572.50506
303.672	548.05945
304.002	556.56681
304.332	600.09208
304.662	603.27207
304.992	576.75242
305.321	561.88144
305.651	562.94414
305.98	579.93717
306.31	603.27207
306.639	584.18248
306.969	573.56701
307.298	595.8511
307.628	584.18248
307.957	571.44303
308.286	593.73018
308.615	564.00676
308.944	562.94414
309.273	584.18248
309.602	578.87566
309.931	597.97173
310.26	595.8511
310.589	569.31875
310.918	552.31374
311.247	599.03194
311.575	594.79068
311.904	566.13178
312.233	580.99861
312.561	550.18675
312.89	533.15969
313.218	578.87566
313.546	601.15215
313.875	590.54827
314.203	577.81408
314.531	580.99861
314.859	594.79068
315.188	579.93717
315.516	584.18248
315.844	562.94414
316.172	570.38093
316.5	586.3047
316.827	541.6757
317.155	538.48278
317.483	589.48748
317.811	601.15215
318.138	562.94414
318.466	587.3657
318.794	589.48748
319.121	567.19418
319.449	562.94414
319.776	555.50366
320.103	574.62889
320.431	589.48748
320.758	576.75242
321.085	596.91145
321.412	601.15215
321.739	571.44303
322.066	585.24363
322.393	591.60898
322.72	586.3047
323.047	584.18248
323.374	567.19418
323.701	553.37712
324.028	577.81408
324.354	593.73018
324.681	583.12126
325.008	592.66961
325.334	584.18248
325.661	564.00676
325.987	589.48748
326.314	602.21215
326.64	572.50506
326.966	562.94414
327.293	566.13178
327.619	569.31875
327.945	572.50506
328.271	585.24363
328.597	591.60898
328.923	573.56701
329.249	555.50366
329.575	541.6757
329.901	557.62989
330.227	596.91145
330.552	615.9857
330.878	591.60898
331.204	579.93717
331.529	588.42663
331.855	591.60898
332.18	584.18248
332.506	566.13178
332.831	571.44303
333.156	577.81408
333.482	588.42663
333.807	590.54827
334.132	596.91145
334.457	607.51107
334.782	610.68958
335.107	610.68958
335.432	593.73018
335.757	579.93717
336.082	557.62989
336.407	569.31875
336.732	571.44303
337.057	566.13178
337.381	573.56701
337.706	568.25651
338.031	579.93717
338.355	589.48748
338.68	576.75242
339.004	562.94414
339.329	576.75242
339.653	575.69069
339.977	580.99861
340.301	611.74894
340.626	579.93717
340.95	548.05945
341.274	550.18675
341.598	575.69069
341.922	594.79068
342.246	588.42663
342.57	589.48748
342.894	573.56701
343.218	577.81408
343.541	575.69069
343.865	546.99569
344.189	560.81866
344.512	605.39171
344.836	600.09208
345.159	587.3657
345.483	594.79068
345.806	601.15215
346.13	602.21215
346.453	571.44303
346.776	553.37712
347.099	560.81866
347.423	589.48748
347.746	573.56701
348.069	560.81866
348.392	580.99861
348.715	571.44303
349.038	569.31875
349.361	577.81408
349.683	575.69069
350.006	555.50366
350.329	560.81866
350.652	579.93717
350.974	574.62889
351.297	564.00676
351.619	574.62889
351.942	600.09208
352.264	586.3047
352.587	579.93717
352.909	573.56701
353.231	582.05997
353.554	591.60898
353.876	580.99861
354.198	577.81408
354.52	573.56701
354.842	573.56701
355.164	578.87566
355.486	603.27207
355.808	582.05997
356.13	576.75242
356.452	604.33193
356.773	584.18248
357.095	578.87566
357.417	573.56701
357.738	544.86793
358.06	554.44043
358.381	572.50506
358.703	605.39171
359.024	628.68935
359.346	590.54827
359.667	548.05945
359.988	560.81866
360.309	574.62889
360.631	564.00676
360.952	553.37712
361.273	549.12314
361.594	561.88144
361.915	577.81408
362.236	601.15215
362.557	599.03194
362.878	584.18248
363.198	570.38093
363.519	564.00676
363.84	570.38093
364.16	551.25029
364.481	587.3657
364.802	608.57064
365.122	604.33193
365.443	588.42663
365.763	562.94414
366.083	557.62989
366.404	574.62889
366.724	615.9857
367.044	605.39171
367.364	568.25651
367.685	560.81866
368.005	558.69289
368.325	551.25029
368.645	546.99569
368.965	541.6757
369.284	561.88144
369.604	574.62889
369.924	595.8511
370.244	631.86373
370.564	611.74894
370.883	573.56701
371.203	570.38093
371.522	549.12314
371.842	557.62989
372.161	585.24363
372.481	596.91145
372.8	594.79068
373.119	602.21215
373.439	584.18248
373.758	564.00676
374.077	576.75242
374.396	588.42663
374.715	597.97173
375.034	580.99861
375.353	565.06931
375.672	589.48748
375.991	586.3047
376.31	582.05997
376.629	579.93717
376.948	559.75581
377.266	582.05997
377.585	606.45143
377.904	587.3657
378.222	576.75242
378.541	571.44303
378.859	574.62889
379.178	575.69069
379.496	566.13178
379.814	587.3657
380.133	572.50506
380.451	559.75581
380.769	559.75581
381.087	569.31875
381.405	574.62889
381.723	601.15215
382.041	624.4559
382.359	595.8511
382.677	582.05997
382.995	579.93717
383.313	561.88144
383.631	553.37712
383.949	570.38093
384.266	554.44043
384.584	560.81866
384.901	597.97173
385.219	607.51107
385.537	567.19418
385.854	559.75581
386.171	557.62989
386.489	541.6757
386.806	566.13178
387.123	575.69069
387.441	588.42663
387.758	603.27207
388.075	599.03194
388.392	586.3047
388.709	594.79068
389.026	593.73018
389.343	559.75581
389.66	565.06931
389.977	586.3047
390.294	571.44303
390.61	567.19418
390.927	562.94414
391.244	552.31374
391.56	529.96488
391.877	529.96488
392.193	555.50366
392.51	573.56701
392.826	580.99861
393.143	579.93717
393.459	561.88144
393.775	559.75581
394.092	575.69069
394.408	550.18675
394.724	545.93185
395.04	565.06931
395.356	575.69069
395.672	596.91145
395.988	594.79068
396.304	575.69069
396.62	571.44303
396.936	590.54827
397.252	559.75581
397.567	552.31374
397.883	582.05997
398.199	562.94414
398.514	565.06931
398.83	582.05997
399.146	605.39171
399.461	602.21215
399.777	606.45143
400.092	623.39736
400.407	603.27207
400.723	562.94414
401.038	556.56681
401.353	569.31875
401.668	573.56701
401.983	586.3047
402.298	578.87566
402.613	596.91145
402.928	576.75242
403.243	543.80393
403.558	557.62989
403.873	576.75242
404.188	586.3047
404.503	571.44303
404.817	572.50506
405.132	569.31875
405.447	558.69289
405.761	582.05997
406.076	585.24363
406.39	566.13178
406.705	583.12126
407.019	584.18248
407.334	552.31374
407.648	569.31875
407.962	594.79068
408.276	567.19418
408.591	578.87566
408.905	587.3657
409.219	595.8511
409.533	611.74894
409.847	600.09208
410.161	597.97173
410.475	588.42663
410.789	570.38093
411.102	580.99861
411.416	613.86746
411.73	614.92662
412.044	612.80824
412.357	602.21215
412.671	569.31875
412.984	552.31374
413.298	567.19418
413.611	594.79068
413.925	617.04472
414.238	628.68935
414.552	611.74894
414.865	580.99861
415.178	576.75242
415.491	584.18248
415.804	618.10366
416.118	596.91145
416.431	558.69289
416.744	576.75242
417.057	588.42663
417.37	587.3657
417.683	568.25651
417.995	570.38093
418.308	582.05997
418.621	568.25651
418.934	576.75242
419.246	580.99861
419.559	578.87566
419.872	603.27207
420.184	608.57064
420.497	613.86746
420.809	610.68958
421.121	583.12126
421.434	583.12126
421.746	580.99861
422.058	560.81866
422.371	588.42663
422.683	603.27207
422.995	605.39171
423.307	589.48748
423.619	565.06931
423.931	576.75242
424.243	558.69289
424.555	560.81866
424.867	614.92662
425.179	621.28009
425.491	590.54827
425.802	568.25651
426.114	562.94414
426.426	565.06931
426.737	569.31875
427.049	591.60898
427.361	592.66961
427.672	585.24363
427.984	566.13178
428.295	562.94414
428.606	565.06931
428.918	582.05997
429.229	644.55518
429.54	623.39736
429.851	614.92662
430.163	592.66961
430.474	568.25651
430.785	577.81408
431.096	559.75581
431.407	572.50506
431.718	588.42663
432.029	607.51107
432.339	597.97173
432.65	571.44303
432.961	543.80393
433.272	552.31374
433.582	577.81408
433.893	570.38093
434.204	558.69289
434.514	560.81866
434.825	561.88144
435.135	575.69069
435.446	594.79068
435.756	595.8511
436.066	603.27207
436.377	609.63015
436.687	577.81408
436.997	553.37712
437.307	554.44043
437.617	575.69069
437.927	575.69069
438.237	555.50366
438.547	565.06931
438.857	583.12126
439.167	561.88144
439.477	548.05945
439.787	572.50506
440.097	588.42663
440.407	606.45143
440.716	592.66961
441.026	577.81408
441.336	580.99861
441.645	585.24363
441.955	620.22135
442.264	642.44061
442.574	627.63109
442.883	584.18248
443.192	566.13178
443.502	590.54827
443.811	577.81408
444.12	572.50506
444.429	562.94414
444.739	546.99569
445.048	562.94414
445.357	573.56701
445.666	586.3047
445.975	609.63015
446.284	607.51107
446.593	578.87566
446.901	546.99569
447.21	544.86793
447.519	560.81866
447.828	559.75581
448.136	566.13178
448.445	591.60898
448.754	583.12126
449.062	560.81866
449.371	559.75581
449.679	552.31374
449.988	564.00676
450.296	587.3657
450.605	561.88144
450.913	584.18248
451.221	670.96526
451.529	662.51844
451.838	594.79068
452.146	579.93717
452.454	599.03194
452.762	608.57064
453.07	601.15215
453.378	562.94414
453.686	565.06931
453.994	613.86746
454.302	612.80824
454.609	570.38093
454.917	575.69069
455.225	577.81408
455.533	559.75581
455.84	567.19418
456.148	582.05997
456.455	589.48748
456.763	576.75242
457.07	595.8511
457.378	586.3047
457.685	560.81866
457.993	575.69069
458.3	603.27207
458.607	605.39171
458.915	577.81408
459.222	583.12126
459.529	570.38093
459.836	576.75242
460.143	596.91145
460.45	566.13178
460.757	572.50506
461.064	592.66961
461.371	580.99861
461.678	569.31875
461.985	556.56681
462.292	574.62889
462.598	610.68958
462.905	610.68958
463.212	595.8511
463.518	585.24363
463.825	579.93717
464.131	583.12126
464.438	561.88144
464.744	569.31875
465.051	591.60898
465.357	585.24363
465.664	572.50506
465.97	559.75581
466.276	561.88144
466.582	580.99861
466.889	600.09208
467.195	601.15215
467.501	596.91145
467.807	580.99861
468.113	558.69289
468.419	590.54827
468.725	600.09208
469.031	576.75242
469.337	631.86373
469.642	637.15301
469.948	583.12126
470.254	582.05997
470.56	580.99861
470.865	575.69069
471.171	567.19418
471.477	549.12314
471.782	568.25651
472.088	575.69069
472.393	590.54827
472.698	599.03194
473.004	574.62889
473.309	558.69289
473.614	558.69289
473.92	557.62989
474.225	550.18675
474.53	579.93717
474.835	589.48748
475.14	575.69069
475.445	571.44303
475.75	566.13178
476.055	564.00676
476.36	569.31875
476.665	591.60898
476.97	600.09208
477.275	593.73018
477.58	605.39171
477.885	605.39171
478.189	578.87566
478.494	588.42663
478.799	579.93717
479.103	548.05945
479.408	559.75581
479.712	588.42663
480.017	603.27207
480.321	582.05997
480.625	550.18675
480.93	555.50366
481.234	570.38093
481.538	570.38093
481.843	589.48748
482.147	587.3657
482.451	569.31875
482.755	580.99861
483.059	601.15215
483.363	611.74894
483.667	608.57064
483.971	584.18248
484.275	571.44303
484.579	575.69069
484.883	558.69289
485.187	553.37712
485.49	569.31875
485.794	588.42663
486.098	568.25651
486.401	540.61148
486.705	579.93717
487.009	584.18248
487.312	591.60898
487.616	586.3047
487.919	577.81408
488.222	568.25651
488.526	550.18675
488.829	567.19418
489.132	580.99861
489.436	578.87566
489.739	566.13178
490.042	537.41832
490.345	531.0299
490.648	551.25029
490.951	564.00676
491.254	604.33193
491.557	615.9857
491.86	585.24363
492.163	545.93185
492.466	562.94414
492.769	594.79068
493.072	593.73018
493.375	575.69069
493.677	559.75581
493.98	580.99861
494.283	588.42663
494.585	576.75242
494.888	595.8511
495.19	597.97173
495.493	579.93717
495.795	578.87566
496.098	591.60898
496.4	611.74894
496.702	619.16254
497.005	609.63015
497.307	626.57276
497.609	601.15215
497.911	576.75242
498.213	578.87566
498.515	556.56681
498.818	558.69289
499.12	558.69289
499.422	569.31875
499.723	590.54827
500.025	608.57064
500.327	585.24363
500.629	555.50366
500.931	546.99569
501.233	533.15969
501.534	577.81408
501.836	618.10366
502.138	608.57064
502.439	592.66961
502.741	558.69289
503.042	539.54717
503.344	551.25029
503.645	592.66961
503.947	594.79068
504.248	577.81408
504.55	566.13178
504.851	573.56701
505.152	577.81408
505.453	542.73986
505.755	579.93717
506.056	601.15215
506.357	590.54827
506.658	585.24363
506.959	564.00676
507.26	573.56701
507.561	592.66961
507.862	599.03194
508.163	587.3657
508.464	564.00676
508.764	545.93185
509.065	558.69289
509.366	576.75242
509.667	571.44303
509.967	561.88144
510.268	556.56681
510.569	548.05945
510.869	538.48278
511.17	549.12314
511.47	597.97173
511.771	607.51107
512.071	593.73018
512.371	605.39171
512.672	602.21215
512.972	576.75242
513.272	578.87566
513.573	593.73018
513.873	562.94414
514.173	543.80393
514.473	572.50506
514.773	587.3657
515.073	561.88144
515.373	573.56701
515.673	594.79068
515.973	565.06931
516.273	554.44043
516.573	565.06931
516.873	577.81408
517.172	591.60898
517.472	568.25651
517.772	550.18675
518.072	568.25651
518.371	605.39171
518.671	624.4559
518.97	602.21215
519.27	601.15215
519.569	610.68958
519.869	606.45143
520.168	609.63015
520.468	588.42663
520.767	568.25651
521.066	577.81408
521.366	579.93717
521.665	544.86793
521.964	545.93185
522.263	574.62889
522.562	595.8511
522.861	589.48748
523.161	585.24363
523.46	600.09208
523.759	611.74894
524.057	597.97173
524.356	543.80393
524.655	551.25029
524.954	611.74894
525.253	603.27207
525.552	586.3047
525.85	593.73018
526.149	608.57064
526.448	600.09208
526.746	569.31875
527.045	583.12126
527.344	615.9857
527.642	613.86746
527.941	596.91145
528.239	580.99861
528.537	583.12126
528.836	607.51107
529.134	593.73018
529.432	572.50506
529.731	560.81866
530.029	551.25029
530.327	536.35378
530.625	551.25029
530.923	566.13178
531.221	560.81866
531.52	567.19418
531.818	552.31374
532.116	555.50366
532.413	572.50506
532.711	554.44043
533.009	565.06931
533.307	590.54827
533.605	555.50366
533.903	550.18675
534.2	593.73018
534.498	590.54827
534.796	572.50506
535.093	568.25651
535.391	569.31875
535.689	571.44303
535.986	572.50506
536.284	571.44303
536.581	575.69069
536.878	585.24363
537.176	588.42663
537.473	596.91145
537.77	611.74894
538.068	586.3047
538.365	573.56701
538.662	573.56701
538.959	572.50506
539.256	588.42663
539.554	580.99861
539.851	591.60898
