Data from dark_beginning_ST026791__203__1301.txt Node

Date: Mon Aug 18 22:12:07 AEST 2025
User: mathewyoussef
Spectrometer: ST02679
Trigger mode: 0
Integration Time (sec): 6.653700E-1
Scans to average: 1
Nonlinearity correction enabled: true
Boxcar width: 0
Storing dark spectrum: false
XAxis mode: Wavelengths
Number of Pixels in Spectrum: 1516
>>>>>Begin Spectral Data<<<<<
187.304	571.44303
187.653	576.75242
188.002	597.97173
188.351	611.74894
188.7	583.12126
189.048	588.42663
189.397	625.51436
189.746	575.69069
190.094	564.00676
190.443	584.18248
190.791	564.00676
191.14	593.73018
191.488	596.91145
191.837	579.93717
192.185	578.87566
192.533	564.00676
192.881	562.94414
193.229	557.62989
193.577	567.19418
193.925	569.31875
194.273	556.56681
194.621	597.97173
194.969	594.79068
195.317	552.31374
195.664	573.56701
196.012	586.3047
196.359	561.88144
196.707	570.38093
197.054	566.13178
197.402	561.88144
197.749	569.31875
198.096	577.81408
198.443	577.81408
198.791	568.25651
199.138	576.75242
199.485	566.13178
199.832	571.44303
200.179	593.73018
200.525	586.3047
200.872	567.19418
201.219	562.94414
201.566	561.88144
201.912	573.56701
202.259	600.09208
202.605	589.48748
202.952	570.38093
203.298	568.25651
203.644	567.19418
203.991	568.25651
204.337	586.3047
204.683	579.93717
205.029	540.61148
205.375	539.54717
205.721	580.99861
206.067	596.91145
206.413	592.66961
206.759	584.18248
207.104	580.99861
207.45	580.99861
207.796	559.75581
208.141	546.99569
208.487	562.94414
208.832	577.81408
209.177	556.56681
209.523	564.00676
209.868	561.88144
210.213	544.86793
210.558	583.12126
210.903	585.24363
211.248	572.50506
211.593	583.12126
211.938	565.06931
212.283	580.99861
212.628	586.3047
212.973	562.94414
213.317	566.13178
213.662	585.24363
214.007	573.56701
214.351	525.70404
214.696	551.25029
215.04	583.12126
215.384	578.87566
215.729	583.12126
216.073	579.93717
216.417	610.68958
216.761	631.86373
217.105	625.51436
217.449	603.27207
217.793	564.00676
218.137	557.62989
218.481	573.56701
218.824	604.33193
219.168	591.60898
219.512	561.88144
219.855	582.05997
220.199	564.00676
220.542	539.54717
220.886	578.87566
221.229	603.27207
221.572	601.15215
221.916	604.33193
222.259	602.21215
222.602	580.99861
222.945	539.54717
223.288	537.41832
223.631	565.06931
223.974	583.12126
224.317	589.48748
224.659	588.42663
225.002	588.42663
225.345	585.24363
225.687	590.54827
226.03	602.21215
226.372	590.54827
226.715	575.69069
227.057	575.69069
227.4	586.3047
227.742	570.38093
228.084	552.31374
228.426	575.69069
228.768	575.69069
229.11	580.99861
229.452	578.87566
229.794	566.13178
230.136	546.99569
230.478	536.35378
230.82	558.69289
231.161	551.25029
231.503	599.03194
231.845	605.39171
232.186	587.3657
232.528	623.39736
232.869	573.56701
233.21	553.37712
233.552	566.13178
233.893	560.81866
234.234	570.38093
234.575	573.56701
234.916	558.69289
235.257	550.18675
235.598	571.44303
235.939	593.73018
236.28	586.3047
236.621	569.31875
236.961	599.03194
237.302	614.92662
237.643	579.93717
237.983	548.05945
238.324	550.18675
238.664	591.60898
239.005	606.45143
239.345	577.81408
239.685	583.12126
240.025	586.3047
240.366	567.19418
240.706	571.44303
241.046	576.75242
241.386	579.93717
241.726	584.18248
242.066	569.31875
242.405	569.31875
242.745	602.21215
243.085	593.73018
243.425	573.56701
243.764	603.27207
244.104	647.72654
244.443	629.74755
244.783	575.69069
245.122	555.50366
245.461	531.0299
245.801	570.38093
246.14	593.73018
246.479	550.18675
246.818	536.35378
247.157	578.87566
247.496	606.45143
247.835	551.25029
248.174	531.0299
248.513	549.12314
248.852	588.42663
249.19	599.03194
249.529	580.99861
249.868	590.54827
250.206	578.87566
250.545	556.56681
250.883	576.75242
251.221	617.04472
251.56	605.39171
251.898	558.69289
252.236	576.75242
252.574	590.54827
252.912	550.18675
253.25	550.18675
253.588	553.37712
253.926	589.48748
254.264	576.75242
254.602	543.80393
254.94	568.25651
255.278	578.87566
255.615	574.62889
255.953	574.62889
256.29	585.24363
256.628	575.69069
256.965	554.44043
257.303	558.69289
257.64	618.10366
257.977	621.28009
258.314	569.31875
258.652	571.44303
258.989	596.91145
259.326	603.27207
259.663	593.73018
260	602.21215
260.337	594.79068
260.673	557.62989
261.01	565.06931
261.347	580.99861
261.684	570.38093
262.02	557.62989
262.357	564.00676
262.693	567.19418
263.03	539.54717
263.366	564.00676
263.702	575.69069
264.039	554.44043
264.375	578.87566
264.711	588.42663
265.047	574.62889
265.383	593.73018
265.719	594.79068
266.055	568.25651
266.391	610.68958
266.727	605.39171
267.063	528.89979
267.399	544.86793
267.734	594.79068
268.07	585.24363
268.405	582.05997
268.741	588.42663
269.076	597.97173
269.412	579.93717
269.747	557.62989
270.082	578.87566
270.418	574.62889
270.753	575.69069
271.088	579.93717
271.423	564.00676
271.758	557.62989
272.093	573.56701
272.428	589.48748
272.763	583.12126
273.098	562.94414
273.433	577.81408
273.767	583.12126
274.102	577.81408
274.436	592.66961
274.771	589.48748
275.106	568.25651
275.44	584.18248
275.774	587.3657
276.109	556.56681
276.443	550.18675
276.777	550.18675
277.111	554.44043
277.445	573.56701
277.78	569.31875
278.114	575.69069
278.447	614.92662
278.781	601.15215
279.115	577.81408
279.449	559.75581
279.783	555.50366
280.116	534.22446
280.45	538.48278
280.784	566.13178
281.117	564.00676
281.451	573.56701
281.784	574.62889
282.117	582.05997
282.451	576.75242
282.784	586.3047
283.117	582.05997
283.45	569.31875
283.783	578.87566
284.116	583.12126
284.449	604.33193
284.782	605.39171
285.115	591.60898
285.448	582.05997
285.781	559.75581
286.114	560.81866
286.446	575.69069
286.779	599.03194
287.111	613.86746
287.444	585.24363
287.776	574.62889
288.109	584.18248
288.441	558.69289
288.773	557.62989
289.106	610.68958
289.438	580.99861
289.77	552.31374
290.102	599.03194
290.434	577.81408
290.766	604.33193
291.098	606.45143
291.43	565.06931
291.762	560.81866
292.094	551.25029
292.425	565.06931
292.757	572.50506
293.089	571.44303
293.42	561.88144
293.752	556.56681
294.083	570.38093
294.414	585.24363
294.746	571.44303
295.077	558.69289
295.408	565.06931
295.74	589.48748
296.071	591.60898
296.402	575.69069
296.733	560.81866
297.064	567.19418
297.395	568.25651
297.726	548.05945
298.056	557.62989
298.387	572.50506
298.718	589.48748
299.049	607.51107
299.379	583.12126
299.71	555.50366
300.04	528.89979
300.371	532.09483
300.701	561.88144
301.031	564.00676
301.362	551.25029
301.692	544.86793
302.022	600.09208
302.352	602.21215
302.682	558.69289
303.012	561.88144
303.342	569.31875
303.672	564.00676
304.002	578.87566
304.332	597.97173
304.662	589.48748
304.992	575.69069
305.321	566.13178
305.651	545.93185
305.98	541.6757
306.31	540.61148
306.639	551.25029
306.969	595.8511
307.298	589.48748
307.628	561.88144
307.957	569.31875
308.286	586.3047
308.615	579.93717
308.944	565.06931
309.273	548.05945
309.602	538.48278
309.931	558.69289
310.26	592.66961
310.589	602.21215
310.918	568.25651
311.247	591.60898
311.575	607.51107
311.904	551.25029
312.233	565.06931
312.561	591.60898
312.89	584.18248
313.218	601.15215
313.546	593.73018
313.875	561.88144
314.203	545.93185
314.531	579.93717
314.859	609.63015
315.188	591.60898
315.516	557.62989
315.844	542.73986
316.172	566.13178
316.5	565.06931
316.827	567.19418
317.155	590.54827
317.483	572.50506
317.811	565.06931
318.138	588.42663
318.466	570.38093
318.794	549.12314
319.121	567.19418
319.449	583.12126
319.776	587.3657
320.103	596.91145
320.431	600.09208
320.758	590.54827
321.085	606.45143
321.412	614.92662
321.739	586.3047
322.066	592.66961
322.393	583.12126
322.72	566.13178
323.047	606.45143
323.374	640.32577
323.701	591.60898
324.028	569.31875
324.354	574.62889
324.681	537.41832
325.008	554.44043
325.334	575.69069
325.661	590.54827
325.987	612.80824
326.314	611.74894
326.64	602.21215
326.966	566.13178
327.293	546.99569
327.619	593.73018
327.945	602.21215
328.271	584.18248
328.597	601.15215
328.923	588.42663
329.249	575.69069
329.575	565.06931
329.901	571.44303
330.227	596.91145
330.552	603.27207
330.878	569.31875
331.204	554.44043
331.529	570.38093
331.855	566.13178
332.18	570.38093
332.506	575.69069
332.831	574.62889
333.156	584.18248
333.482	596.91145
333.807	586.3047
334.132	576.75242
334.457	594.79068
334.782	587.3657
335.107	569.31875
335.432	555.50366
335.757	541.6757
336.082	549.12314
336.407	552.31374
336.732	558.69289
337.057	573.56701
337.381	576.75242
337.706	579.93717
338.031	599.03194
338.355	579.93717
338.68	550.18675
339.004	565.06931
339.329	568.25651
339.653	554.44043
339.977	570.38093
340.301	577.81408
340.626	574.62889
340.95	590.54827
341.274	602.21215
341.598	601.15215
341.922	568.25651
342.246	559.75581
342.57	586.3047
342.894	569.31875
343.218	552.31374
343.541	582.05997
343.865	600.09208
344.189	579.93717
344.512	584.18248
344.836	573.56701
345.159	554.44043
345.483	571.44303
345.806	569.31875
346.13	579.93717
346.453	566.13178
346.776	562.94414
347.099	606.45143
347.423	597.97173
347.746	559.75581
348.069	561.88144
348.392	591.60898
348.715	589.48748
349.038	572.50506
349.361	546.99569
349.683	548.05945
350.006	557.62989
350.329	549.12314
350.652	566.13178
350.974	572.50506
351.297	574.62889
351.619	585.24363
351.942	593.73018
352.264	599.03194
352.587	546.99569
352.909	512.91382
353.231	540.61148
353.554	577.81408
353.876	597.97173
354.198	591.60898
354.52	576.75242
354.842	554.44043
355.164	564.00676
355.486	584.18248
355.808	576.75242
356.13	603.27207
356.452	650.89731
356.773	651.95411
357.095	583.12126
357.417	556.56681
357.738	576.75242
358.06	571.44303
358.381	560.81866
358.703	561.88144
359.024	594.79068
359.346	596.91145
359.667	558.69289
359.988	536.35378
360.309	554.44043
360.631	556.56681
360.952	565.06931
361.273	576.75242
361.594	573.56701
361.915	587.3657
362.236	593.73018
362.557	600.09208
362.878	604.33193
363.198	575.69069
363.519	580.99861
363.84	618.10366
364.16	612.80824
364.481	559.75581
364.802	544.86793
365.122	575.69069
365.443	582.05997
365.763	584.18248
366.083	596.91145
366.404	592.66961
366.724	582.05997
367.044	590.54827
367.364	593.73018
367.685	568.25651
368.005	561.88144
368.325	582.05997
368.645	578.87566
368.965	579.93717
369.284	557.62989
369.604	560.81866
369.924	582.05997
370.244	608.57064
370.564	608.57064
370.883	560.81866
371.203	564.00676
371.522	585.24363
371.842	589.48748
372.161	585.24363
372.481	592.66961
372.8	566.13178
373.119	550.18675
373.439	605.39171
373.758	606.45143
374.077	584.18248
374.396	599.03194
374.715	591.60898
375.034	554.44043
375.353	578.87566
375.672	583.12126
375.991	573.56701
376.31	593.73018
376.629	587.3657
376.948	568.25651
377.266	540.61148
377.585	582.05997
377.904	603.27207
378.222	583.12126
378.541	576.75242
378.859	555.50366
379.178	568.25651
379.496	567.19418
379.814	561.88144
380.133	558.69289
380.451	561.88144
380.769	578.87566
381.087	587.3657
381.405	582.05997
381.723	562.94414
382.041	584.18248
382.359	605.39171
382.677	575.69069
382.995	571.44303
383.313	584.18248
383.631	571.44303
383.949	580.99861
384.266	593.73018
384.584	597.97173
384.901	594.79068
385.219	571.44303
385.537	575.69069
385.854	585.24363
386.171	585.24363
386.489	596.91145
386.806	583.12126
387.123	566.13178
387.441	566.13178
387.758	595.8511
388.075	576.75242
388.392	549.12314
388.709	549.12314
389.026	542.73986
389.343	570.38093
389.66	589.48748
389.977	595.8511
390.294	594.79068
390.61	587.3657
390.927	607.51107
391.244	599.03194
391.56	587.3657
391.877	594.79068
392.193	588.42663
392.51	588.42663
392.826	576.75242
393.143	573.56701
393.459	573.56701
393.775	560.81866
394.092	549.12314
394.408	535.28916
394.724	545.93185
395.04	542.73986
395.356	555.50366
395.672	580.99861
395.988	577.81408
396.304	583.12126
396.62	591.60898
396.936	601.15215
397.252	592.66961
397.567	584.18248
397.883	611.74894
398.199	590.54827
398.514	550.18675
398.83	578.87566
399.146	607.51107
399.461	593.73018
399.777	580.99861
400.092	584.18248
400.407	556.56681
400.723	532.09483
401.038	550.18675
401.353	576.75242
401.668	608.57064
401.983	613.86746
402.298	580.99861
402.613	593.73018
402.928	597.97173
403.243	568.25651
403.558	560.81866
403.873	558.69289
404.188	582.05997
404.503	594.79068
404.817	580.99861
405.132	576.75242
405.447	558.69289
405.761	589.48748
406.076	615.9857
406.39	578.87566
406.705	567.19418
407.019	574.62889
407.334	578.87566
407.648	577.81408
407.962	572.50506
408.276	539.54717
408.591	529.96488
408.905	564.00676
409.219	584.18248
409.533	566.13178
409.847	574.62889
410.161	607.51107
410.475	579.93717
410.789	556.56681
411.102	553.37712
411.416	576.75242
411.73	575.69069
412.044	577.81408
412.357	593.73018
412.671	583.12126
412.984	567.19418
413.298	561.88144
413.611	579.93717
413.925	595.8511
414.238	599.03194
414.552	580.99861
414.865	567.19418
415.178	560.81866
415.491	556.56681
415.804	599.03194
416.118	620.22135
416.431	592.66961
416.744	592.66961
417.057	597.97173
417.37	579.93717
417.683	570.38093
417.995	597.97173
418.308	595.8511
418.621	603.27207
418.934	601.15215
419.246	567.19418
419.559	584.18248
419.872	587.3657
420.184	572.50506
420.497	583.12126
420.809	595.8511
421.121	591.60898
421.434	591.60898
421.746	594.79068
422.058	584.18248
422.371	591.60898
422.683	566.13178
422.995	555.50366
423.307	566.13178
423.619	551.25029
423.931	554.44043
424.243	543.80393
424.555	564.00676
424.867	589.48748
425.179	609.63015
425.491	595.8511
425.802	602.21215
426.114	604.33193
426.426	560.81866
426.737	580.99861
427.049	609.63015
427.361	619.16254
427.672	613.86746
427.984	602.21215
428.295	582.05997
428.606	557.62989
428.918	561.88144
429.229	621.28009
429.54	635.0375
429.851	579.93717
430.163	583.12126
430.474	580.99861
430.785	557.62989
431.096	567.19418
431.407	565.06931
431.718	562.94414
432.029	559.75581
432.339	570.38093
432.65	602.21215
432.961	578.87566
433.272	569.31875
433.582	561.88144
433.893	550.18675
434.204	577.81408
434.514	588.42663
434.825	582.05997
435.135	571.44303
435.446	601.15215
435.756	604.33193
436.066	588.42663
436.377	640.32577
436.687	615.9857
436.997	559.75581
437.307	556.56681
437.617	574.62889
437.927	596.91145
438.237	597.97173
438.547	583.12126
438.857	577.81408
439.167	580.99861
439.477	572.50506
439.787	572.50506
440.097	575.69069
440.407	584.18248
440.716	571.44303
441.026	564.00676
441.336	618.10366
441.645	619.16254
441.955	573.56701
442.264	577.81408
442.574	604.33193
442.883	593.73018
443.192	557.62989
443.502	584.18248
443.811	619.16254
444.12	621.28009
444.429	605.39171
444.739	569.31875
445.048	584.18248
445.357	580.99861
445.666	551.25029
445.975	557.62989
446.284	564.00676
446.593	579.93717
446.901	569.31875
447.21	552.31374
447.519	552.31374
447.828	562.94414
448.136	585.24363
448.445	591.60898
448.754	579.93717
449.062	556.56681
449.371	570.38093
449.679	554.44043
449.988	539.54717
450.296	587.3657
450.605	584.18248
450.913	617.04472
451.221	674.13176
451.529	626.57276
451.838	564.00676
452.146	593.73018
452.454	592.66961
452.762	596.91145
453.07	594.79068
453.378	568.25651
453.686	600.09208
453.994	601.15215
454.302	577.81408
454.609	556.56681
454.917	571.44303
455.225	583.12126
455.533	571.44303
455.84	564.00676
456.148	555.50366
456.455	573.56701
456.763	584.18248
457.07	602.21215
457.378	621.28009
457.685	609.63015
457.993	597.97173
458.3	571.44303
458.607	560.81866
458.915	580.99861
459.222	583.12126
459.529	574.62889
459.836	572.50506
460.143	577.81408
460.45	578.87566
460.757	591.60898
461.064	607.51107
461.371	589.48748
461.678	582.05997
461.985	573.56701
462.292	570.38093
462.598	571.44303
462.905	586.3047
463.212	608.57064
463.518	600.09208
463.825	599.03194
464.131	611.74894
464.438	590.54827
464.744	556.56681
465.051	600.09208
465.357	609.63015
465.664	565.06931
465.97	566.13178
466.276	571.44303
466.582	586.3047
466.889	591.60898
467.195	594.79068
467.501	601.15215
467.807	584.18248
468.113	559.75581
468.419	572.50506
468.725	592.66961
469.031	617.04472
469.337	655.12409
469.642	628.68935
469.948	587.3657
470.254	585.24363
470.56	566.13178
470.865	554.44043
471.171	575.69069
471.477	592.66961
471.782	580.99861
472.088	578.87566
472.393	604.33193
472.698	605.39171
473.004	573.56701
473.309	567.19418
473.614	574.62889
473.92	587.3657
474.225	590.54827
474.53	582.05997
474.835	607.51107
475.14	599.03194
475.445	583.12126
475.75	568.25651
476.055	564.00676
476.36	594.79068
476.665	593.73018
476.97	596.91145
477.275	602.21215
477.58	603.27207
477.885	613.86746
478.189	588.42663
478.494	570.38093
478.799	591.60898
479.103	595.8511
479.408	566.13178
479.712	571.44303
480.017	553.37712
480.321	540.61148
480.625	587.3657
480.93	590.54827
481.234	565.06931
481.538	580.99861
481.843	558.69289
482.147	550.18675
482.451	557.62989
482.755	566.13178
483.059	574.62889
483.363	538.48278
483.667	550.18675
483.971	566.13178
484.275	571.44303
484.579	577.81408
484.883	587.3657
485.187	589.48748
485.49	597.97173
485.794	584.18248
486.098	569.31875
486.401	566.13178
486.705	549.12314
487.009	538.48278
487.312	559.75581
487.616	608.57064
487.919	588.42663
488.222	575.69069
488.526	601.15215
488.829	618.10366
489.132	580.99861
489.436	551.25029
489.739	546.99569
490.042	566.13178
490.345	605.39171
490.648	594.79068
490.951	596.91145
491.254	587.3657
491.557	587.3657
491.86	608.57064
492.163	617.04472
492.466	583.12126
492.769	568.25651
493.072	591.60898
493.375	570.38093
493.677	566.13178
493.98	592.66961
494.283	582.05997
494.585	569.31875
494.888	592.66961
495.19	600.09208
495.493	593.73018
495.795	603.27207
496.098	622.33876
496.4	603.27207
496.702	589.48748
497.005	606.45143
497.307	594.79068
497.609	586.3047
497.911	568.25651
498.213	569.31875
498.515	597.97173
498.818	599.03194
499.12	566.13178
499.422	577.81408
499.723	607.51107
500.025	596.91145
500.327	580.99861
500.629	569.31875
500.931	567.19418
501.233	564.00676
501.534	575.69069
501.836	567.19418
502.138	564.00676
502.439	579.93717
502.741	574.62889
503.042	586.3047
503.344	595.8511
503.645	611.74894
503.947	599.03194
504.248	550.18675
504.55	565.06931
504.851	584.18248
505.152	569.31875
505.453	564.00676
505.755	590.54827
506.056	613.86746
506.357	611.74894
506.658	599.03194
506.959	565.06931
507.26	575.69069
507.561	586.3047
507.862	561.88144
508.163	579.93717
508.464	606.45143
508.764	618.10366
509.065	585.24363
509.366	580.99861
509.667	592.66961
509.967	559.75581
510.268	573.56701
510.569	583.12126
510.869	576.75242
511.17	570.38093
511.47	558.69289
511.771	578.87566
512.071	597.97173
512.371	579.93717
512.672	568.25651
512.972	592.66961
513.272	603.27207
513.573	577.81408
513.873	564.00676
514.173	551.25029
514.473	558.69289
514.773	583.12126
515.073	595.8511
515.373	614.92662
515.673	593.73018
515.973	565.06931
516.273	570.38093
516.573	566.13178
516.873	564.00676
517.172	590.54827
517.472	578.87566
517.772	573.56701
518.072	596.91145
518.371	606.45143
518.671	606.45143
518.97	564.00676
519.27	568.25651
519.569	608.57064
519.869	602.21215
520.168	593.73018
520.468	589.48748
520.767	575.69069
521.066	573.56701
521.366	562.94414
521.665	560.81866
521.964	585.24363
522.263	572.50506
522.562	552.31374
522.861	558.69289
523.161	556.56681
523.46	556.56681
523.759	568.25651
524.057	597.97173
524.356	577.81408
524.655	555.50366
524.954	558.69289
525.253	546.99569
525.552	558.69289
525.85	576.75242
526.149	597.97173
526.448	585.24363
526.746	569.31875
527.045	550.18675
527.344	560.81866
527.642	606.45143
527.941	604.33193
528.239	599.03194
528.537	578.87566
528.836	571.44303
529.134	595.8511
529.432	575.69069
529.731	552.31374
530.029	540.61148
530.327	554.44043
530.625	572.50506
530.923	572.50506
531.221	593.73018
531.52	603.27207
531.818	588.42663
532.116	574.62889
532.413	589.48748
532.711	596.91145
533.009	586.3047
533.307	593.73018
533.605	587.3657
533.903	591.60898
534.2	613.86746
534.498	591.60898
534.796	582.05997
535.093	585.24363
535.391	583.12126
535.689	579.93717
535.986	579.93717
536.284	588.42663
536.581	601.15215
536.878	613.86746
537.176	586.3047
537.473	574.62889
537.77	586.3047
538.068	602.21215
538.365	592.66961
538.662	572.50506
538.959	571.44303
539.256	557.62989
539.554	586.3047
