Data from dark_beginning_ST026791__202__1300.txt Node

Date: Mon Aug 18 22:12:06 AEST 2025
User: mathewyoussef
Spectrometer: ST02679
Trigger mode: 0
Integration Time (sec): 6.653700E-1
Scans to average: 1
Nonlinearity correction enabled: true
Boxcar width: 0
Storing dark spectrum: false
XAxis mode: Wavelengths
Number of Pixels in Spectrum: 1516
>>>>>Begin Spectral Data<<<<<
187.304	582.05997
187.653	593.73018
188.002	597.97173
188.351	580.99861
188.7	550.18675
189.048	561.88144
189.397	584.18248
189.746	591.60898
190.094	583.12126
190.443	575.69069
190.791	568.25651
191.14	595.8511
191.488	596.91145
191.837	588.42663
192.185	583.12126
192.533	558.69289
192.881	560.81866
193.229	549.12314
193.577	587.3657
193.925	595.8511
194.273	576.75242
194.621	590.54827
194.969	591.60898
195.317	560.81866
195.664	559.75581
196.012	579.93717
196.359	559.75581
196.707	544.86793
197.054	572.50506
197.402	591.60898
197.749	569.31875
198.096	550.18675
198.443	557.62989
198.791	574.62889
199.138	580.99861
199.485	564.00676
199.832	566.13178
200.179	569.31875
200.525	586.3047
200.872	603.27207
201.219	580.99861
201.566	582.05997
201.912	586.3047
202.259	570.38093
202.605	564.00676
202.952	579.93717
203.298	591.60898
203.644	599.03194
203.991	575.69069
204.337	559.75581
204.683	580.99861
205.029	591.60898
205.375	576.75242
205.721	573.56701
206.067	585.24363
206.413	575.69069
206.759	582.05997
207.104	589.48748
207.45	554.44043
207.796	569.31875
208.141	605.39171
208.487	588.42663
208.832	582.05997
209.177	578.87566
209.523	558.69289
209.868	542.73986
210.213	559.75581
210.558	588.42663
210.903	580.99861
211.248	551.25029
211.593	552.31374
211.938	569.31875
212.283	570.38093
212.628	580.99861
212.973	577.81408
213.317	553.37712
213.662	555.50366
214.007	570.38093
214.351	543.80393
214.696	561.88144
215.04	599.03194
215.384	558.69289
215.729	566.13178
216.073	592.66961
216.417	571.44303
216.761	561.88144
217.105	579.93717
217.449	592.66961
217.793	572.50506
218.137	566.13178
218.481	569.31875
218.824	591.60898
219.168	588.42663
219.512	602.21215
219.855	608.57064
220.199	562.94414
220.542	542.73986
220.886	569.31875
221.229	579.93717
221.572	573.56701
221.916	596.91145
222.259	578.87566
222.602	579.93717
222.945	580.99861
223.288	575.69069
223.631	587.3657
223.974	564.00676
224.317	550.18675
224.659	571.44303
225.002	600.09208
225.345	571.44303
225.687	570.38093
226.03	615.9857
226.372	617.04472
226.715	600.09208
227.057	579.93717
227.4	588.42663
227.742	584.18248
228.084	554.44043
228.426	572.50506
228.768	575.69069
229.11	574.62889
229.452	580.99861
229.794	573.56701
230.136	569.31875
230.478	577.81408
230.82	579.93717
231.161	582.05997
231.503	611.74894
231.845	600.09208
232.186	599.03194
232.528	589.48748
232.869	552.31374
233.21	553.37712
233.552	583.12126
233.893	603.27207
234.234	602.21215
234.575	600.09208
234.916	586.3047
235.257	594.79068
235.598	580.99861
235.939	550.18675
236.28	561.88144
236.621	577.81408
236.961	611.74894
237.302	614.92662
237.643	585.24363
237.983	579.93717
238.324	566.13178
238.664	587.3657
239.005	586.3047
239.345	588.42663
239.685	591.60898
240.025	568.25651
240.366	569.31875
240.706	569.31875
241.046	583.12126
241.386	567.19418
241.726	542.73986
242.066	521.44192
242.405	541.6757
242.745	573.56701
243.085	575.69069
243.425	564.00676
243.764	585.24363
244.104	632.92172
244.443	623.39736
244.783	599.03194
245.122	559.75581
245.461	578.87566
245.801	611.74894
246.14	592.66961
246.479	585.24363
246.818	566.13178
247.157	557.62989
247.496	580.99861
247.835	588.42663
248.174	562.94414
248.513	554.44043
248.852	612.80824
249.19	624.4559
249.529	579.93717
249.868	570.38093
250.206	586.3047
250.545	592.66961
250.883	559.75581
251.221	555.50366
251.56	560.81866
251.898	543.80393
252.236	564.00676
252.574	554.44043
252.912	554.44043
253.25	584.18248
253.588	572.50506
253.926	575.69069
254.264	566.13178
254.602	544.86793
254.94	549.12314
255.278	561.88144
255.615	575.69069
255.953	571.44303
256.29	576.75242
256.628	567.19418
256.965	567.19418
257.303	561.88144
257.64	527.83462
257.977	575.69069
258.314	579.93717
258.652	553.37712
258.989	596.91145
259.326	587.3657
259.663	567.19418
260	608.57064
260.337	595.8511
260.673	580.99861
261.01	585.24363
261.347	573.56701
261.684	584.18248
262.02	600.09208
262.357	608.57064
262.693	586.3047
263.03	577.81408
263.366	601.15215
263.702	583.12126
264.039	564.00676
264.375	574.62889
264.711	571.44303
265.047	570.38093
265.383	560.81866
265.719	542.73986
266.055	545.93185
266.391	602.21215
266.727	607.51107
267.063	580.99861
267.399	617.04472
267.734	609.63015
268.07	578.87566
268.405	576.75242
268.741	584.18248
269.076	578.87566
269.412	585.24363
269.747	579.93717
270.082	553.37712
270.418	554.44043
270.753	583.12126
271.088	597.97173
271.423	576.75242
271.758	573.56701
272.093	596.91145
272.428	597.97173
272.763	580.99861
273.098	604.33193
273.433	592.66961
273.767	566.13178
274.102	566.13178
274.436	566.13178
274.771	589.48748
275.106	583.12126
275.44	585.24363
275.774	595.8511
276.109	566.13178
276.443	562.94414
276.777	587.3657
277.111	589.48748
277.445	585.24363
277.78	570.38093
278.114	571.44303
278.447	588.42663
278.781	578.87566
279.115	580.99861
279.449	577.81408
279.783	590.54827
280.116	604.33193
280.45	560.81866
280.784	567.19418
281.117	605.39171
281.451	596.91145
281.784	572.50506
282.117	564.00676
282.451	568.25651
282.784	565.06931
283.117	588.42663
283.45	609.63015
283.783	593.73018
284.116	584.18248
284.449	611.74894
284.782	635.0375
285.115	583.12126
285.448	560.81866
285.781	572.50506
286.114	568.25651
286.446	583.12126
286.779	586.3047
287.111	578.87566
287.444	571.44303
287.776	572.50506
288.109	586.3047
288.441	560.81866
288.773	540.61148
289.106	584.18248
289.438	602.21215
289.77	595.8511
290.102	601.15215
290.434	609.63015
290.766	609.63015
291.098	589.48748
291.43	589.48748
291.762	549.12314
292.094	544.86793
292.425	591.60898
292.757	590.54827
293.089	555.50366
293.42	543.80393
293.752	558.69289
294.083	558.69289
294.414	594.79068
294.746	575.69069
295.077	545.93185
295.408	557.62989
295.74	590.54827
296.071	588.42663
296.402	571.44303
296.733	611.74894
297.064	618.10366
297.395	607.51107
297.726	584.18248
298.056	588.42663
298.387	586.3047
298.718	599.03194
299.049	618.10366
299.379	589.48748
299.71	589.48748
300.04	586.3047
300.371	587.3657
300.701	585.24363
301.031	583.12126
301.362	588.42663
301.692	573.56701
302.022	567.19418
302.352	592.66961
302.682	593.73018
303.012	588.42663
303.342	592.66961
303.672	564.00676
304.002	574.62889
304.332	593.73018
304.662	578.87566
304.992	557.62989
305.321	559.75581
305.651	600.09208
305.98	599.03194
306.31	585.24363
306.639	594.79068
306.969	603.27207
307.298	596.91145
307.628	568.25651
307.957	567.19418
308.286	570.38093
308.615	555.50366
308.944	586.3047
309.273	593.73018
309.602	564.00676
309.931	572.50506
310.26	570.38093
310.589	564.00676
310.918	551.25029
311.247	562.94414
311.575	564.00676
311.904	554.44043
312.233	584.18248
312.561	568.25651
312.89	564.00676
313.218	605.39171
313.546	630.80567
313.875	605.39171
314.203	569.31875
314.531	558.69289
314.859	543.80393
315.188	557.62989
315.516	571.44303
315.844	573.56701
316.172	594.79068
316.5	591.60898
316.827	585.24363
317.155	582.05997
317.483	541.6757
317.811	535.28916
318.138	561.88144
318.466	582.05997
318.794	574.62889
319.121	570.38093
319.449	578.87566
319.776	557.62989
320.103	576.75242
320.431	576.75242
320.758	571.44303
321.085	579.93717
321.412	557.62989
321.739	568.25651
322.066	591.60898
322.393	579.93717
322.72	589.48748
323.047	580.99861
323.374	588.42663
323.701	589.48748
324.028	564.00676
324.354	586.3047
324.681	580.99861
325.008	595.8511
325.334	601.15215
325.661	559.75581
325.987	585.24363
326.314	608.57064
326.64	570.38093
326.966	565.06931
327.293	576.75242
327.619	596.91145
327.945	602.21215
328.271	603.27207
328.597	594.79068
328.923	567.19418
329.249	568.25651
329.575	568.25651
329.901	570.38093
330.227	580.99861
330.552	566.13178
330.878	552.31374
331.204	567.19418
331.529	593.73018
331.855	614.92662
332.18	587.3657
332.506	555.50366
332.831	554.44043
333.156	567.19418
333.482	603.27207
333.807	590.54827
334.132	576.75242
334.457	592.66961
334.782	579.93717
335.107	589.48748
335.432	585.24363
335.757	557.62989
336.082	552.31374
336.407	558.69289
336.732	590.54827
337.057	605.39171
337.381	573.56701
337.706	549.12314
338.031	558.69289
338.355	569.31875
338.68	584.18248
339.004	578.87566
339.329	569.31875
339.653	574.62889
339.977	576.75242
340.301	565.06931
340.626	571.44303
340.95	594.79068
341.274	570.38093
341.598	561.88144
341.922	577.81408
342.246	567.19418
342.57	551.25029
342.894	565.06931
343.218	585.24363
343.541	578.87566
343.865	562.94414
344.189	567.19418
344.512	565.06931
344.836	583.12126
345.159	586.3047
345.483	567.19418
345.806	557.62989
346.13	569.31875
346.453	574.62889
346.776	557.62989
347.099	550.18675
347.423	564.00676
347.746	588.42663
348.069	613.86746
348.392	597.97173
348.715	573.56701
349.038	565.06931
349.361	544.86793
349.683	595.8511
350.006	599.03194
350.329	564.00676
350.652	584.18248
350.974	590.54827
351.297	556.56681
351.619	543.80393
351.942	585.24363
352.264	594.79068
352.587	569.31875
352.909	571.44303
353.231	573.56701
353.554	578.87566
353.876	602.21215
354.198	609.63015
354.52	587.3657
354.842	579.93717
355.164	593.73018
355.486	572.50506
355.808	539.54717
356.13	539.54717
356.452	580.99861
356.773	580.99861
357.095	537.41832
357.417	544.86793
357.738	538.48278
358.06	568.25651
358.381	604.33193
358.703	566.13178
359.024	558.69289
359.346	556.56681
359.667	550.18675
359.988	566.13178
360.309	582.05997
360.631	574.62889
360.952	585.24363
361.273	588.42663
361.594	584.18248
361.915	625.51436
362.236	614.92662
362.557	592.66961
362.878	597.97173
363.198	580.99861
363.519	574.62889
363.84	586.3047
364.16	584.18248
364.481	569.31875
364.802	562.94414
365.122	578.87566
365.443	592.66961
365.763	604.33193
366.083	605.39171
366.404	591.60898
366.724	599.03194
367.044	583.12126
367.364	549.12314
367.685	541.6757
368.005	553.37712
368.325	577.81408
368.645	584.18248
368.965	568.25651
369.284	583.12126
369.604	602.21215
369.924	584.18248
370.244	589.48748
370.564	574.62889
370.883	537.41832
371.203	559.75581
371.522	588.42663
371.842	602.21215
372.161	583.12126
372.481	574.62889
372.8	593.73018
373.119	611.74894
373.439	617.04472
373.758	589.48748
374.077	571.44303
374.396	607.51107
374.715	603.27207
375.034	567.19418
375.353	571.44303
375.672	555.50366
375.991	562.94414
376.31	561.88144
376.629	572.50506
376.948	580.99861
377.266	564.00676
377.585	597.97173
377.904	613.86746
378.222	583.12126
378.541	586.3047
378.859	562.94414
379.178	535.28916
379.496	566.13178
379.814	568.25651
380.133	560.81866
380.451	543.80393
380.769	542.73986
381.087	552.31374
381.405	538.48278
381.723	551.25029
382.041	562.94414
382.359	568.25651
382.677	573.56701
382.995	583.12126
383.313	569.31875
383.631	544.86793
383.949	540.61148
384.266	556.56681
384.584	557.62989
384.901	554.44043
385.219	569.31875
385.537	580.99861
385.854	572.50506
386.171	559.75581
386.489	579.93717
386.806	605.39171
387.123	610.68958
387.441	607.51107
387.758	607.51107
388.075	597.97173
388.392	578.87566
388.709	578.87566
389.026	579.93717
389.343	580.99861
389.66	597.97173
389.977	617.04472
390.294	600.09208
390.61	568.25651
390.927	583.12126
391.244	614.92662
391.56	605.39171
391.877	577.81408
392.193	565.06931
392.51	556.56681
392.826	545.93185
393.143	565.06931
393.459	602.21215
393.775	599.03194
394.092	567.19418
394.408	553.37712
394.724	557.62989
395.04	571.44303
395.356	600.09208
395.672	576.75242
395.988	580.99861
396.304	599.03194
396.62	557.62989
396.936	558.69289
397.252	582.05997
397.567	584.18248
397.883	582.05997
398.199	565.06931
398.514	568.25651
398.83	594.79068
399.146	592.66961
399.461	574.62889
399.777	575.69069
400.092	562.94414
400.407	577.81408
400.723	614.92662
401.038	605.39171
401.353	588.42663
401.668	568.25651
401.983	601.15215
402.298	601.15215
402.613	553.37712
402.928	559.75581
403.243	554.44043
403.558	570.38093
403.873	593.73018
404.188	575.69069
404.503	564.00676
404.817	576.75242
405.132	576.75242
405.447	571.44303
405.761	599.03194
406.076	611.74894
406.39	583.12126
406.705	577.81408
407.019	571.44303
407.334	577.81408
407.648	579.93717
407.962	546.99569
408.276	548.05945
408.591	556.56681
408.905	552.31374
409.219	559.75581
409.533	574.62889
409.847	582.05997
410.161	574.62889
410.475	585.24363
410.789	569.31875
411.102	571.44303
411.416	618.10366
411.73	605.39171
412.044	602.21215
412.357	593.73018
412.671	548.05945
412.984	531.0299
413.298	553.37712
413.611	589.48748
413.925	610.68958
414.238	585.24363
414.552	566.13178
414.865	560.81866
415.178	570.38093
415.491	579.93717
415.804	578.87566
416.118	572.50506
416.431	569.31875
416.744	579.93717
417.057	583.12126
417.37	610.68958
417.683	605.39171
417.995	579.93717
418.308	550.18675
418.621	541.6757
418.934	552.31374
419.246	579.93717
419.559	610.68958
419.872	600.09208
420.184	608.57064
420.497	603.27207
420.809	582.05997
421.121	571.44303
421.434	561.88144
421.746	573.56701
422.058	578.87566
422.371	557.62989
422.683	544.86793
422.995	528.89979
423.307	540.61148
423.619	564.00676
423.931	565.06931
424.243	589.48748
424.555	594.79068
424.867	599.03194
425.179	623.39736
425.491	592.66961
425.802	571.44303
426.114	572.50506
426.426	560.81866
426.737	565.06931
427.049	571.44303
427.361	584.18248
427.672	561.88144
427.984	559.75581
428.295	596.91145
428.606	549.12314
428.918	554.44043
429.229	662.51844
429.54	644.55518
429.851	601.15215
430.163	587.3657
430.474	558.69289
430.785	572.50506
431.096	588.42663
431.407	595.8511
431.718	586.3047
432.029	572.50506
432.339	567.19418
432.65	569.31875
432.961	567.19418
433.272	580.99861
433.582	600.09208
433.893	596.91145
434.204	557.62989
434.514	549.12314
434.825	587.3657
435.135	592.66961
435.446	577.81408
435.756	568.25651
436.066	580.99861
436.377	626.57276
436.687	615.9857
436.997	573.56701
437.307	573.56701
437.617	568.25651
437.927	560.81866
438.237	577.81408
438.547	583.12126
438.857	591.60898
439.167	591.60898
439.477	566.13178
439.787	590.54827
440.097	617.04472
440.407	579.93717
440.716	573.56701
441.026	592.66961
441.336	593.73018
441.645	608.57064
441.955	605.39171
442.264	574.62889
442.574	589.48748
442.883	633.97964
443.192	641.38322
443.502	608.57064
443.811	582.05997
444.12	599.03194
444.429	591.60898
444.739	591.60898
445.048	594.79068
445.357	589.48748
445.666	572.50506
445.975	567.19418
446.284	571.44303
446.593	568.25651
446.901	562.94414
447.21	578.87566
447.519	583.12126
447.828	550.18675
448.136	550.18675
448.445	534.22446
448.754	543.80393
449.062	583.12126
449.371	588.42663
449.679	556.56681
449.988	546.99569
450.296	550.18675
450.605	548.05945
450.913	575.69069
451.221	611.74894
451.529	607.51107
451.838	580.99861
452.146	569.31875
452.454	590.54827
452.762	637.15301
453.07	591.60898
453.378	577.81408
453.686	608.57064
453.994	627.63109
454.302	587.3657
454.609	541.6757
454.917	561.88144
455.225	575.69069
455.533	569.31875
455.84	573.56701
456.148	584.18248
456.455	559.75581
456.763	571.44303
457.07	567.19418
457.378	557.62989
457.685	579.93717
457.993	571.44303
458.3	585.24363
458.607	603.27207
458.915	595.8511
459.222	610.68958
459.529	571.44303
459.836	568.25651
460.143	585.24363
460.45	570.38093
460.757	564.00676
461.064	580.99861
461.371	592.66961
461.678	557.62989
461.985	570.38093
462.292	572.50506
462.598	577.81408
462.905	586.3047
463.212	575.69069
463.518	579.93717
463.825	578.87566
464.131	590.54827
464.438	601.15215
464.744	583.12126
465.051	572.50506
465.357	586.3047
465.664	587.3657
465.97	591.60898
466.276	591.60898
466.582	566.13178
466.889	550.18675
467.195	566.13178
467.501	570.38093
467.807	573.56701
468.113	574.62889
468.419	567.19418
468.725	588.42663
469.031	599.03194
469.337	610.68958
469.642	589.48748
469.948	551.25029
470.254	572.50506
470.56	594.79068
470.865	584.18248
471.171	600.09208
471.477	595.8511
471.782	553.37712
472.088	573.56701
472.393	601.15215
472.698	585.24363
473.004	578.87566
473.309	584.18248
473.614	580.99861
473.92	574.62889
474.225	578.87566
474.53	607.51107
474.835	589.48748
475.14	574.62889
475.445	585.24363
475.75	576.75242
476.055	550.18675
476.36	559.75581
476.665	580.99861
476.97	567.19418
477.275	591.60898
477.58	609.63015
477.885	605.39171
478.189	578.87566
478.494	564.00676
478.799	571.44303
479.103	562.94414
479.408	562.94414
479.712	575.69069
480.017	600.09208
480.321	594.79068
480.625	559.75581
480.93	544.86793
481.234	544.86793
481.538	569.31875
481.843	585.24363
482.147	567.19418
482.451	560.81866
482.755	556.56681
483.059	571.44303
483.363	579.93717
483.667	559.75581
483.971	587.3657
484.275	592.66961
484.579	578.87566
484.883	569.31875
485.187	571.44303
485.49	591.60898
485.794	605.39171
486.098	607.51107
486.401	590.54827
486.705	571.44303
487.009	541.6757
487.312	558.69289
487.616	609.63015
487.919	606.45143
488.222	569.31875
488.526	568.25651
488.829	594.79068
489.132	607.51107
489.436	596.91145
489.739	571.44303
490.042	557.62989
490.345	570.38093
490.648	608.57064
490.951	621.28009
491.254	604.33193
491.557	603.27207
491.86	583.12126
492.163	564.00676
492.466	570.38093
492.769	551.25029
493.072	537.41832
493.375	564.00676
493.677	607.51107
493.98	605.39171
494.283	597.97173
494.585	578.87566
494.888	565.06931
495.19	595.8511
495.493	593.73018
495.795	596.91145
496.098	612.80824
496.4	592.66961
496.702	557.62989
497.005	560.81866
497.307	591.60898
497.609	593.73018
497.911	590.54827
498.213	591.60898
498.515	573.56701
498.818	558.69289
499.12	567.19418
499.422	585.24363
499.723	583.12126
500.025	599.03194
500.327	592.66961
500.629	580.99861
500.931	585.24363
501.233	558.69289
501.534	567.19418
501.836	580.99861
502.138	592.66961
502.439	606.45143
502.741	580.99861
503.042	573.56701
503.344	568.25651
503.645	565.06931
503.947	572.50506
504.248	577.81408
504.55	574.62889
504.851	585.24363
505.152	588.42663
505.453	564.00676
505.755	574.62889
506.056	589.48748
506.357	577.81408
506.658	573.56701
506.959	554.44043
507.26	545.93185
507.561	560.81866
507.862	556.56681
508.163	565.06931
508.464	582.05997
508.764	565.06931
509.065	549.12314
509.366	588.42663
509.667	595.8511
509.967	595.8511
510.268	583.12126
510.569	569.31875
510.869	586.3047
511.17	596.91145
511.47	605.39171
511.771	579.93717
512.071	577.81408
512.371	591.60898
512.672	592.66961
512.972	555.50366
513.272	540.61148
513.573	562.94414
513.873	553.37712
514.173	587.3657
514.473	596.91145
514.773	594.79068
515.073	604.33193
515.373	585.24363
515.673	562.94414
515.973	561.88144
516.273	579.93717
516.573	580.99861
516.873	580.99861
517.172	561.88144
517.472	564.00676
517.772	575.69069
518.072	583.12126
518.371	596.91145
518.671	573.56701
518.97	561.88144
519.27	584.18248
519.569	587.3657
519.869	588.42663
520.168	589.48748
520.468	586.3047
520.767	576.75242
521.066	558.69289
521.366	556.56681
521.665	575.69069
521.964	586.3047
522.263	572.50506
522.562	567.19418
522.861	583.12126
523.161	577.81408
523.46	565.06931
523.759	580.99861
524.057	577.81408
524.356	577.81408
524.655	580.99861
524.954	565.06931
525.253	567.19418
525.552	608.57064
525.85	613.86746
526.149	580.99861
526.448	589.48748
526.746	569.31875
527.045	572.50506
527.344	637.15301
527.642	615.9857
527.941	614.92662
528.239	620.22135
528.537	577.81408
528.836	580.99861
529.134	602.21215
529.432	593.73018
529.731	571.44303
530.029	586.3047
530.327	582.05997
530.625	554.44043
530.923	556.56681
531.221	556.56681
531.52	556.56681
531.818	583.12126
532.116	566.13178
532.413	534.22446
532.711	561.88144
533.009	590.54827
533.307	582.05997
533.605	560.81866
533.903	550.18675
534.2	543.80393
534.498	534.22446
534.796	572.50506
535.093	623.39736
535.391	609.63015
535.689	573.56701
535.986	577.81408
536.284	570.38093
536.581	549.12314
536.878	586.3047
537.176	592.66961
537.473	556.56681
537.77	568.25651
538.068	589.48748
538.365	572.50506
538.662	575.69069
538.959	579.93717
539.256	573.56701
539.554	602.21215
