Data from dark_beginning_ST026791__130__1228.txt Node

Date: Mon Aug 18 22:10:28 AEST 2025
User: mathewyoussef
Spectrometer: ST02679
Trigger mode: 0
Integration Time (sec): 6.653700E-1
Scans to average: 1
Nonlinearity correction enabled: true
Boxcar width: 0
Storing dark spectrum: false
XAxis mode: Wavelengths
Number of Pixels in Spectrum: 1516
>>>>>Begin Spectral Data<<<<<
187.304	585.24363
187.653	587.3657
188.002	589.48748
188.351	561.88144
188.7	555.50366
189.048	594.79068
189.397	610.68958
189.746	588.42663
190.094	584.18248
190.443	566.13178
190.791	554.44043
191.14	570.38093
191.488	579.93717
191.837	587.3657
192.185	560.81866
192.533	555.50366
192.881	568.25651
193.229	587.3657
193.577	582.05997
193.925	534.22446
194.273	572.50506
194.621	588.42663
194.969	587.3657
195.317	609.63015
195.664	587.3657
196.012	594.79068
196.359	580.99861
196.707	554.44043
197.054	553.37712
197.402	570.38093
197.749	586.3047
198.096	580.99861
198.443	584.18248
198.791	589.48748
199.138	574.62889
199.485	544.86793
199.832	534.22446
200.179	538.48278
200.525	552.31374
200.872	546.99569
201.219	542.73986
201.566	571.44303
201.912	587.3657
202.259	594.79068
202.605	589.48748
202.952	572.50506
203.298	552.31374
203.644	539.54717
203.991	565.06931
204.337	569.31875
204.683	555.50366
205.029	565.06931
205.375	562.94414
205.721	578.87566
206.067	576.75242
206.413	573.56701
206.759	597.97173
207.104	576.75242
207.45	566.13178
207.796	574.62889
208.141	566.13178
208.487	589.48748
208.832	610.68958
209.177	584.18248
209.523	574.62889
209.868	562.94414
210.213	565.06931
210.558	572.50506
210.903	578.87566
211.248	590.54827
211.593	582.05997
211.938	587.3657
212.283	577.81408
212.628	564.00676
212.973	565.06931
213.317	568.25651
213.662	582.05997
214.007	586.3047
214.351	580.99861
214.696	577.81408
215.04	578.87566
215.384	566.13178
215.729	572.50506
216.073	583.12126
216.417	584.18248
216.761	584.18248
217.105	577.81408
217.449	557.62989
217.793	560.81866
218.137	573.56701
218.481	570.38093
218.824	587.3657
219.168	567.19418
219.512	558.69289
219.855	554.44043
220.199	560.81866
220.542	591.60898
220.886	596.91145
221.229	591.60898
221.572	560.81866
221.916	546.99569
222.259	564.00676
222.602	573.56701
222.945	556.56681
223.288	528.89979
223.631	539.54717
223.974	544.86793
224.317	554.44043
224.659	585.24363
225.002	586.3047
225.345	577.81408
225.687	574.62889
226.03	584.18248
226.372	562.94414
226.715	550.18675
227.057	595.8511
227.4	627.63109
227.742	602.21215
228.084	561.88144
228.426	566.13178
228.768	575.69069
229.11	601.15215
229.452	603.27207
229.794	554.44043
230.136	553.37712
230.478	592.66961
230.82	573.56701
231.161	526.76937
231.503	555.50366
231.845	582.05997
232.186	611.74894
232.528	605.39171
232.869	583.12126
233.21	593.73018
233.552	577.81408
233.893	583.12126
234.234	590.54827
234.575	594.79068
234.916	587.3657
235.257	573.56701
235.598	576.75242
235.939	564.00676
236.28	558.69289
236.621	587.3657
236.961	589.48748
237.302	575.69069
237.643	569.31875
237.983	583.12126
238.324	559.75581
238.664	560.81866
239.005	568.25651
239.345	567.19418
239.685	603.27207
240.025	605.39171
240.366	570.38093
240.706	560.81866
241.046	574.62889
241.386	548.05945
241.726	570.38093
242.066	573.56701
242.405	565.06931
242.745	590.54827
243.085	574.62889
243.425	583.12126
243.764	607.51107
244.104	613.86746
244.443	593.73018
244.783	582.05997
245.122	590.54827
245.461	562.94414
245.801	560.81866
246.14	565.06931
246.479	567.19418
246.818	565.06931
247.157	576.75242
247.496	601.15215
247.835	601.15215
248.174	586.3047
248.513	564.00676
248.852	597.97173
249.19	599.03194
249.529	571.44303
249.868	587.3657
250.206	578.87566
250.545	578.87566
250.883	591.60898
251.221	576.75242
251.56	569.31875
251.898	559.75581
252.236	576.75242
252.574	568.25651
252.912	548.05945
253.25	564.00676
253.588	584.18248
253.926	609.63015
254.264	605.39171
254.602	607.51107
254.94	572.50506
255.278	533.15969
255.615	559.75581
255.953	584.18248
256.29	584.18248
256.628	551.25029
256.965	540.61148
257.303	562.94414
257.64	569.31875
257.977	582.05997
258.314	571.44303
258.652	570.38093
258.989	561.88144
259.326	562.94414
259.663	573.56701
260	565.06931
260.337	545.93185
260.673	523.57314
261.01	561.88144
261.347	586.3047
261.684	592.66961
262.02	601.15215
262.357	578.87566
262.693	552.31374
263.03	561.88144
263.366	571.44303
263.702	552.31374
264.039	544.86793
264.375	554.44043
264.711	562.94414
265.047	573.56701
265.383	588.42663
265.719	587.3657
266.055	594.79068
266.391	617.04472
266.727	584.18248
267.063	539.54717
267.399	539.54717
267.734	556.56681
268.07	577.81408
268.405	589.48748
268.741	602.21215
269.076	586.3047
269.412	578.87566
269.747	576.75242
270.082	552.31374
270.418	542.73986
270.753	575.69069
271.088	607.51107
271.423	593.73018
271.758	594.79068
272.093	595.8511
272.428	575.69069
272.763	588.42663
273.098	586.3047
273.433	570.38093
273.767	578.87566
274.102	580.99861
274.436	593.73018
274.771	602.21215
275.106	570.38093
275.44	578.87566
275.774	589.48748
276.109	567.19418
276.443	599.03194
276.777	578.87566
277.111	569.31875
277.445	588.42663
277.78	572.50506
278.114	611.74894
278.447	593.73018
278.781	559.75581
279.115	584.18248
279.449	566.13178
279.783	560.81866
280.116	577.81408
280.45	570.38093
280.784	572.50506
281.117	590.54827
281.451	594.79068
281.784	592.66961
282.117	575.69069
282.451	538.48278
282.784	549.12314
283.117	597.97173
283.45	587.3657
283.783	560.81866
284.116	589.48748
284.449	573.56701
284.782	548.05945
285.115	590.54827
285.448	585.24363
285.781	576.75242
286.114	577.81408
286.446	569.31875
286.779	567.19418
287.111	572.50506
287.444	562.94414
287.776	552.31374
288.109	580.99861
288.441	572.50506
288.773	561.88144
289.106	572.50506
289.438	576.75242
289.77	576.75242
290.102	567.19418
290.434	572.50506
290.766	614.92662
291.098	620.22135
291.43	583.12126
291.762	578.87566
292.094	574.62889
292.425	570.38093
292.757	556.56681
293.089	560.81866
293.42	587.3657
293.752	580.99861
294.083	546.99569
294.414	561.88144
294.746	593.73018
295.077	575.69069
295.408	577.81408
295.74	577.81408
296.071	576.75242
296.402	576.75242
296.733	570.38093
297.064	571.44303
297.395	544.86793
297.726	556.56681
298.056	577.81408
298.387	546.99569
298.718	558.69289
299.049	576.75242
299.379	546.99569
299.71	568.25651
300.04	592.66961
300.371	569.31875
300.701	582.05997
301.031	602.21215
301.362	568.25651
301.692	559.75581
302.022	586.3047
302.352	562.94414
302.682	554.44043
303.012	556.56681
303.342	573.56701
303.672	601.15215
304.002	571.44303
304.332	553.37712
304.662	548.05945
304.992	539.54717
305.321	527.83462
305.651	543.80393
305.98	571.44303
306.31	569.31875
306.639	560.81866
306.969	569.31875
307.298	584.18248
307.628	575.69069
307.957	568.25651
308.286	560.81866
308.615	584.18248
308.944	610.68958
309.273	591.60898
309.602	562.94414
309.931	574.62889
310.26	589.48748
310.589	588.42663
310.918	583.12126
311.247	607.51107
311.575	594.79068
311.904	553.37712
312.233	588.42663
312.561	588.42663
312.89	599.03194
313.218	628.68935
313.546	592.66961
313.875	580.99861
314.203	568.25651
314.531	559.75581
314.859	585.24363
315.188	594.79068
315.516	575.69069
315.844	569.31875
316.172	602.21215
316.5	596.91145
316.827	573.56701
317.155	583.12126
317.483	585.24363
317.811	564.00676
318.138	594.79068
318.466	596.91145
318.794	560.81866
319.121	565.06931
319.449	576.75242
319.776	571.44303
320.103	561.88144
320.431	587.3657
320.758	606.45143
321.085	594.79068
321.412	573.56701
321.739	579.93717
322.066	601.15215
322.393	583.12126
322.72	583.12126
323.047	593.73018
323.374	574.62889
323.701	568.25651
324.028	577.81408
324.354	583.12126
324.681	565.06931
325.008	589.48748
325.334	592.66961
325.661	539.54717
325.987	565.06931
326.314	603.27207
326.64	594.79068
326.966	585.24363
327.293	555.50366
327.619	566.13178
327.945	589.48748
328.271	575.69069
328.597	592.66961
328.923	593.73018
329.249	591.60898
329.575	584.18248
329.901	571.44303
330.227	587.3657
330.552	603.27207
330.878	606.45143
331.204	592.66961
331.529	567.19418
331.855	565.06931
332.18	585.24363
332.506	567.19418
332.831	570.38093
333.156	592.66961
333.482	582.05997
333.807	574.62889
334.132	564.00676
334.457	569.31875
334.782	579.93717
335.107	574.62889
335.432	577.81408
335.757	600.09208
336.082	586.3047
336.407	555.50366
336.732	584.18248
337.057	611.74894
337.381	606.45143
337.706	582.05997
338.031	552.31374
338.355	558.69289
338.68	596.91145
339.004	606.45143
339.329	574.62889
339.653	572.50506
339.977	562.94414
340.301	548.05945
340.626	551.25029
340.95	582.05997
341.274	621.28009
341.598	591.60898
341.922	583.12126
342.246	578.87566
342.57	592.66961
342.894	596.91145
343.218	580.99861
343.541	588.42663
343.865	574.62889
344.189	582.05997
344.512	593.73018
344.836	593.73018
345.159	580.99861
345.483	585.24363
345.806	593.73018
346.13	600.09208
346.453	607.51107
346.776	586.3047
347.099	586.3047
347.423	592.66961
347.746	577.81408
348.069	586.3047
348.392	594.79068
348.715	562.94414
349.038	566.13178
349.361	588.42663
349.683	564.00676
350.006	561.88144
350.329	585.24363
350.652	605.39171
350.974	595.8511
351.297	561.88144
351.619	559.75581
351.942	589.48748
352.264	605.39171
352.587	605.39171
352.909	584.18248
353.231	558.69289
353.554	579.93717
353.876	597.97173
354.198	593.73018
354.52	599.03194
354.842	615.9857
355.164	626.57276
355.486	608.57064
355.808	592.66961
356.13	585.24363
356.452	621.28009
356.773	633.97964
357.095	557.62989
357.417	546.99569
357.738	573.56701
358.06	568.25651
358.381	575.69069
358.703	569.31875
359.024	582.05997
359.346	587.3657
359.667	575.69069
359.988	589.48748
360.309	612.80824
360.631	596.91145
360.952	587.3657
361.273	574.62889
361.594	582.05997
361.915	602.21215
362.236	556.56681
362.557	551.25029
362.878	592.66961
363.198	582.05997
363.519	564.00676
363.84	599.03194
364.16	586.3047
364.481	558.69289
364.802	556.56681
365.122	566.13178
365.443	594.79068
365.763	603.27207
366.083	584.18248
366.404	543.80393
366.724	554.44043
367.044	612.80824
367.364	594.79068
367.685	558.69289
368.005	572.50506
368.325	588.42663
368.645	578.87566
368.965	552.31374
369.284	559.75581
369.604	574.62889
369.924	584.18248
370.244	623.39736
370.564	619.16254
370.883	582.05997
371.203	596.91145
371.522	606.45143
371.842	612.80824
372.161	612.80824
372.481	588.42663
372.8	571.44303
373.119	588.42663
373.439	597.97173
373.758	561.88144
374.077	570.38093
374.396	589.48748
374.715	580.99861
375.034	580.99861
375.353	574.62889
375.672	588.42663
375.991	586.3047
376.31	541.6757
376.629	550.18675
376.948	554.44043
377.266	542.73986
377.585	580.99861
377.904	595.8511
378.222	570.38093
378.541	560.81866
378.859	567.19418
379.178	575.69069
379.496	578.87566
379.814	604.33193
380.133	612.80824
380.451	606.45143
380.769	579.93717
381.087	540.61148
381.405	556.56681
381.723	565.06931
382.041	562.94414
382.359	561.88144
382.677	576.75242
382.995	608.57064
383.313	585.24363
383.631	574.62889
383.949	589.48748
384.266	568.25651
384.584	565.06931
384.901	566.13178
385.219	551.25029
385.537	564.00676
385.854	566.13178
386.171	552.31374
386.489	552.31374
386.806	566.13178
387.123	591.60898
387.441	594.79068
387.758	612.80824
388.075	590.54827
388.392	554.44043
388.709	557.62989
389.026	562.94414
389.343	569.31875
389.66	591.60898
389.977	635.0375
390.294	622.33876
390.61	576.75242
390.927	582.05997
391.244	591.60898
391.56	571.44303
391.877	564.00676
392.193	565.06931
392.51	584.18248
392.826	556.56681
393.143	553.37712
393.459	596.91145
393.775	575.69069
394.092	544.86793
394.408	566.13178
394.724	584.18248
395.04	573.56701
395.356	584.18248
395.672	587.3657
395.988	570.38093
396.304	565.06931
396.62	558.69289
396.936	549.12314
397.252	552.31374
397.567	555.50366
397.883	569.31875
398.199	587.3657
398.514	582.05997
398.83	585.24363
399.146	600.09208
399.461	592.66961
399.777	572.50506
400.092	572.50506
400.407	560.81866
400.723	557.62989
401.038	578.87566
401.353	597.97173
401.668	596.91145
401.983	573.56701
402.298	593.73018
402.613	625.51436
402.928	610.68958
403.243	583.12126
403.558	557.62989
403.873	558.69289
404.188	546.99569
404.503	561.88144
404.817	593.73018
405.132	572.50506
405.447	555.50366
405.761	580.99861
406.076	619.16254
406.39	595.8511
406.705	572.50506
407.019	583.12126
407.334	566.13178
407.648	553.37712
407.962	584.18248
408.276	578.87566
408.591	570.38093
408.905	584.18248
409.219	593.73018
409.533	607.51107
409.847	615.9857
410.161	604.33193
410.475	566.13178
410.789	556.56681
411.102	587.3657
411.416	603.27207
411.73	586.3047
412.044	586.3047
412.357	612.80824
412.671	603.27207
412.984	567.19418
413.298	571.44303
413.611	618.10366
413.925	632.92172
414.238	586.3047
414.552	549.12314
414.865	548.05945
415.178	585.24363
415.491	608.57064
415.804	605.39171
416.118	588.42663
416.431	583.12126
416.744	572.50506
417.057	552.31374
417.37	557.62989
417.683	551.25029
417.995	558.69289
418.308	570.38093
418.621	559.75581
418.934	566.13178
419.246	570.38093
419.559	550.18675
419.872	578.87566
420.184	589.48748
420.497	562.94414
420.809	569.31875
421.121	560.81866
421.434	555.50366
421.746	568.25651
422.058	560.81866
422.371	554.44043
422.683	525.70404
422.995	519.31038
423.307	544.86793
423.619	570.38093
423.931	603.27207
424.243	601.15215
424.555	579.93717
424.867	599.03194
425.179	623.39736
425.491	621.28009
425.802	607.51107
426.114	599.03194
426.426	592.66961
426.737	562.94414
427.049	575.69069
427.361	648.78353
427.672	622.33876
427.984	566.13178
428.295	593.73018
428.606	582.05997
428.918	609.63015
429.229	661.4623
429.54	605.39171
429.851	567.19418
430.163	576.75242
430.474	584.18248
430.785	595.8511
431.096	577.81408
431.407	559.75581
431.718	554.44043
432.029	568.25651
432.339	573.56701
432.65	567.19418
432.961	577.81408
433.272	588.42663
433.582	592.66961
433.893	577.81408
434.204	566.13178
434.514	583.12126
434.825	568.25651
435.135	557.62989
435.446	606.45143
435.756	620.22135
436.066	600.09208
436.377	609.63015
436.687	588.42663
436.997	555.50366
437.307	573.56701
437.617	595.8511
437.927	578.87566
438.237	573.56701
438.547	578.87566
438.857	573.56701
439.167	552.31374
439.477	554.44043
439.787	573.56701
440.097	577.81408
440.407	583.12126
440.716	575.69069
441.026	574.62889
441.336	588.42663
441.645	571.44303
441.955	522.50757
442.264	550.18675
442.574	586.3047
442.883	574.62889
443.192	628.68935
443.502	631.86373
443.811	578.87566
444.12	584.18248
444.429	592.66961
444.739	570.38093
445.048	590.54827
445.357	609.63015
445.666	567.19418
445.975	552.31374
446.284	559.75581
446.593	560.81866
446.901	556.56681
447.21	564.00676
447.519	582.05997
447.828	594.79068
448.136	556.56681
448.445	553.37712
448.754	553.37712
449.062	554.44043
449.371	609.63015
449.679	584.18248
449.988	551.25029
450.296	585.24363
450.605	536.35378
450.913	523.57314
451.221	603.27207
451.529	603.27207
451.838	576.75242
452.146	555.50366
452.454	555.50366
452.762	579.93717
453.07	570.38093
453.378	594.79068
453.686	611.74894
453.994	609.63015
454.302	600.09208
454.609	574.62889
454.917	564.00676
455.225	562.94414
455.533	602.21215
455.84	572.50506
456.148	550.18675
456.455	591.60898
456.763	576.75242
457.07	589.48748
457.378	593.73018
457.685	562.94414
457.993	562.94414
458.3	570.38093
458.607	593.73018
458.915	608.57064
459.222	599.03194
459.529	568.25651
459.836	548.05945
460.143	541.6757
460.45	561.88144
460.757	561.88144
461.064	567.19418
461.371	583.12126
461.678	595.8511
461.985	597.97173
462.292	601.15215
462.598	600.09208
462.905	559.75581
463.212	554.44043
463.518	568.25651
463.825	566.13178
464.131	587.3657
464.438	584.18248
464.744	552.31374
465.051	588.42663
465.357	615.9857
465.664	585.24363
465.97	580.99861
466.276	565.06931
466.582	568.25651
466.889	593.73018
467.195	589.48748
467.501	577.81408
467.807	593.73018
468.113	579.93717
468.419	569.31875
468.725	593.73018
469.031	552.31374
469.337	580.99861
469.642	609.63015
469.948	568.25651
470.254	552.31374
470.56	556.56681
470.865	558.69289
471.171	525.70404
471.477	527.83462
471.782	548.05945
472.088	566.13178
472.393	583.12126
472.698	559.75581
473.004	562.94414
473.309	573.56701
473.614	573.56701
473.92	593.73018
474.225	595.8511
474.53	586.3047
474.835	594.79068
475.14	560.81866
475.445	538.48278
475.75	564.00676
476.055	568.25651
476.36	600.09208
476.665	614.92662
476.97	607.51107
477.275	615.9857
477.58	582.05997
477.885	586.3047
478.189	596.91145
478.494	593.73018
478.799	599.03194
479.103	582.05997
479.408	564.00676
479.712	550.18675
480.017	553.37712
480.321	572.50506
480.625	579.93717
480.93	546.99569
481.234	557.62989
481.538	615.9857
481.843	615.9857
482.147	582.05997
482.451	553.37712
482.755	545.93185
483.059	570.38093
483.363	573.56701
483.667	561.88144
483.971	543.80393
484.275	555.50366
484.579	587.3657
484.883	575.69069
485.187	579.93717
485.49	577.81408
485.794	573.56701
486.098	578.87566
486.401	573.56701
486.705	572.50506
487.009	558.69289
487.312	592.66961
487.616	621.28009
487.919	588.42663
488.222	560.81866
488.526	541.6757
488.829	583.12126
489.132	601.15215
489.436	566.13178
489.739	551.25029
490.042	565.06931
490.345	583.12126
490.648	551.25029
490.951	534.22446
491.254	578.87566
491.557	585.24363
491.86	554.44043
492.163	565.06931
492.466	606.45143
492.769	589.48748
493.072	565.06931
493.375	599.03194
493.677	607.51107
493.98	569.31875
494.283	562.94414
494.585	569.31875
494.888	560.81866
495.19	572.50506
495.493	588.42663
495.795	587.3657
496.098	594.79068
496.4	594.79068
496.702	584.18248
497.005	602.21215
497.307	612.80824
497.609	597.97173
497.911	566.13178
498.213	583.12126
498.515	597.97173
498.818	578.87566
499.12	572.50506
499.422	567.19418
499.723	569.31875
500.025	592.66961
500.327	580.99861
500.629	561.88144
500.931	571.44303
501.233	558.69289
501.534	543.80393
501.836	577.81408
502.138	596.91145
502.439	588.42663
502.741	592.66961
503.042	567.19418
503.344	555.50366
503.645	601.15215
503.947	596.91145
504.248	579.93717
504.55	558.69289
504.851	553.37712
505.152	588.42663
505.453	566.13178
505.755	587.3657
506.056	591.60898
506.357	565.06931
506.658	593.73018
506.959	578.87566
507.26	561.88144
507.561	558.69289
507.862	536.35378
508.163	545.93185
508.464	605.39171
508.764	610.68958
509.065	555.50366
509.366	578.87566
509.667	583.12126
509.967	565.06931
510.268	571.44303
510.569	572.50506
510.869	573.56701
511.17	574.62889
511.47	575.69069
511.771	569.31875
512.071	579.93717
512.371	566.13178
512.672	533.15969
512.972	541.6757
513.272	545.93185
513.573	553.37712
513.873	573.56701
514.173	562.94414
514.473	550.18675
514.773	585.24363
515.073	603.27207
515.373	568.25651
515.673	570.38093
515.973	596.91145
516.273	577.81408
516.573	553.37712
516.873	558.69289
517.172	548.05945
517.472	548.05945
517.772	546.99569
518.072	550.18675
518.371	568.25651
518.671	568.25651
518.97	585.24363
519.27	599.03194
519.569	580.99861
519.869	566.13178
520.168	566.13178
520.468	559.75581
520.767	550.18675
521.066	545.93185
521.366	575.69069
521.665	587.3657
521.964	560.81866
522.263	588.42663
522.562	609.63015
522.861	565.06931
523.161	556.56681
523.46	580.99861
523.759	579.93717
524.057	577.81408
524.356	578.87566
524.655	587.3657
524.954	585.24363
525.253	584.18248
525.552	629.74755
525.85	620.22135
526.149	588.42663
526.448	588.42663
526.746	573.56701
527.045	554.44043
527.344	584.18248
527.642	608.57064
527.941	591.60898
528.239	575.69069
528.537	568.25651
528.836	573.56701
529.134	565.06931
529.432	580.99861
529.731	586.3047
530.029	587.3657
530.327	572.50506
530.625	529.96488
530.923	552.31374
531.221	561.88144
531.52	531.0299
531.818	543.80393
532.116	567.19418
532.413	562.94414
532.711	568.25651
533.009	589.48748
533.307	573.56701
533.605	567.19418
533.903	577.81408
534.2	571.44303
534.498	556.56681
534.796	553.37712
535.093	561.88144
535.391	546.99569
535.689	553.37712
535.986	562.94414
536.284	551.25029
536.581	560.81866
536.878	603.27207
537.176	637.15301
537.473	607.51107
537.77	602.21215
538.068	601.15215
538.365	574.62889
538.662	565.06931
538.959	541.6757
539.256	529.96488
539.554	566.13178
539.851	592.66961
