Data from dark_beginning_ST026791__151__1249.txt Node

Date: Mon Aug 18 22:10:57 AEST 2025
User: mathewyoussef
Spectrometer: ST02679
Trigger mode: 0
Integration Time (sec): 6.653700E-1
Scans to average: 1
Nonlinearity correction enabled: true
Boxcar width: 0
Storing dark spectrum: false
XAxis mode: Wavelengths
Number of Pixels in Spectrum: 1516
>>>>>Begin Spectral Data<<<<<
187.304	596.91145
187.653	604.33193
188.002	600.09208
188.351	574.62889
188.7	559.75581
189.048	576.75242
189.397	596.91145
189.746	591.60898
190.094	601.15215
190.443	576.75242
190.791	541.6757
191.14	551.25029
191.488	549.12314
191.837	546.99569
192.185	566.13178
192.533	596.91145
192.881	591.60898
193.229	578.87566
193.577	604.33193
193.925	604.33193
194.273	578.87566
194.621	594.79068
194.969	599.03194
195.317	571.44303
195.664	564.00676
196.012	559.75581
196.359	561.88144
196.707	580.99861
197.054	603.27207
197.402	595.8511
197.749	568.25651
198.096	600.09208
198.443	617.04472
198.791	567.19418
199.138	565.06931
199.485	593.73018
199.832	559.75581
200.179	539.54717
200.525	548.05945
200.872	560.81866
201.219	589.48748
201.566	607.51107
201.912	609.63015
202.259	566.13178
202.605	546.99569
202.952	584.18248
203.298	579.93717
203.644	572.50506
203.991	590.54827
204.337	580.99861
204.683	580.99861
205.029	578.87566
205.375	562.94414
205.721	571.44303
206.067	577.81408
206.413	594.79068
206.759	583.12126
207.104	527.83462
207.45	543.80393
207.796	584.18248
208.141	587.3657
208.487	590.54827
208.832	572.50506
209.177	561.88144
209.523	583.12126
209.868	586.3047
210.213	601.15215
210.558	586.3047
210.903	565.06931
211.248	576.75242
211.593	565.06931
211.938	546.99569
212.283	558.69289
212.628	588.42663
212.973	600.09208
213.317	561.88144
213.662	554.44043
214.007	591.60898
214.351	610.68958
214.696	582.05997
215.04	560.81866
215.384	567.19418
215.729	561.88144
216.073	555.50366
216.417	572.50506
216.761	569.31875
217.105	566.13178
217.449	604.33193
217.793	596.91145
218.137	575.69069
218.481	597.97173
218.824	624.4559
219.168	601.15215
219.512	571.44303
219.855	585.24363
220.199	582.05997
220.542	548.05945
220.886	556.56681
221.229	590.54827
221.572	587.3657
221.916	561.88144
222.259	575.69069
222.602	595.8511
222.945	578.87566
223.288	550.18675
223.631	532.09483
223.974	554.44043
224.317	583.12126
224.659	576.75242
225.002	587.3657
225.345	587.3657
225.687	580.99861
226.03	609.63015
226.372	583.12126
226.715	555.50366
227.057	564.00676
227.4	558.69289
227.742	567.19418
228.084	569.31875
228.426	580.99861
228.768	587.3657
229.11	582.05997
229.452	605.39171
229.794	596.91145
230.136	577.81408
230.478	580.99861
230.82	584.18248
231.161	573.56701
231.503	589.48748
231.845	575.69069
232.186	594.79068
232.528	632.92172
232.869	599.03194
233.21	564.00676
233.552	556.56681
233.893	573.56701
234.234	573.56701
234.575	576.75242
234.916	576.75242
235.257	607.51107
235.598	612.80824
235.939	570.38093
236.28	565.06931
236.621	576.75242
236.961	595.8511
237.302	594.79068
237.643	579.93717
237.983	587.3657
238.324	575.69069
238.664	593.73018
239.005	602.21215
239.345	591.60898
239.685	575.69069
240.025	567.19418
240.366	571.44303
240.706	576.75242
241.046	576.75242
241.386	566.13178
241.726	557.62989
242.066	552.31374
242.405	572.50506
242.745	586.3047
243.085	586.3047
243.425	583.12126
243.764	592.66961
244.104	618.10366
244.443	600.09208
244.783	579.93717
245.122	566.13178
245.461	546.99569
245.801	570.38093
246.14	580.99861
246.479	560.81866
246.818	559.75581
247.157	593.73018
247.496	603.27207
247.835	591.60898
248.174	587.3657
248.513	588.42663
248.852	610.68958
249.19	620.22135
249.529	609.63015
249.868	589.48748
250.206	577.81408
250.545	569.31875
250.883	546.99569
251.221	576.75242
251.56	590.54827
251.898	560.81866
252.236	567.19418
252.574	561.88144
252.912	554.44043
253.25	572.50506
253.588	590.54827
253.926	592.66961
254.264	577.81408
254.602	564.00676
254.94	573.56701
255.278	575.69069
255.615	536.35378
255.953	539.54717
256.29	583.12126
256.628	591.60898
256.965	573.56701
257.303	571.44303
257.64	591.60898
257.977	596.91145
258.314	557.62989
258.652	553.37712
258.989	580.99861
259.326	575.69069
259.663	579.93717
260	578.87566
260.337	575.69069
260.673	570.38093
261.01	556.56681
261.347	558.69289
261.684	578.87566
262.02	602.21215
262.357	569.31875
262.693	555.50366
263.03	566.13178
263.366	578.87566
263.702	578.87566
264.039	574.62889
264.375	608.57064
264.711	636.09528
265.047	604.33193
265.383	560.81866
265.719	571.44303
266.055	575.69069
266.391	596.91145
266.727	599.03194
267.063	596.91145
267.399	590.54827
267.734	597.97173
268.07	576.75242
268.405	566.13178
268.741	589.48748
269.076	585.24363
269.412	584.18248
269.747	575.69069
270.082	593.73018
270.418	573.56701
270.753	587.3657
271.088	609.63015
271.423	576.75242
271.758	580.99861
272.093	583.12126
272.428	589.48748
272.763	595.8511
273.098	590.54827
273.433	590.54827
273.767	584.18248
274.102	561.88144
274.436	532.09483
274.771	568.25651
275.106	578.87566
275.44	560.81866
275.774	577.81408
276.109	574.62889
276.443	569.31875
276.777	567.19418
277.111	585.24363
277.445	594.79068
277.78	573.56701
278.114	582.05997
278.447	572.50506
278.781	541.6757
279.115	573.56701
279.449	575.69069
279.783	564.00676
280.116	566.13178
280.45	552.31374
280.784	579.93717
281.117	590.54827
281.451	539.54717
281.784	573.56701
282.117	642.44061
282.451	623.39736
282.784	586.3047
283.117	574.62889
283.45	594.79068
283.783	577.81408
284.116	570.38093
284.449	576.75242
284.782	595.8511
285.115	633.97964
285.448	592.66961
285.781	539.54717
286.114	553.37712
286.446	583.12126
286.779	627.63109
287.111	626.57276
287.444	596.91145
287.776	612.80824
288.109	590.54827
288.441	574.62889
288.773	575.69069
289.106	583.12126
289.438	595.8511
289.77	588.42663
290.102	586.3047
290.434	575.69069
290.766	612.80824
291.098	613.86746
291.43	596.91145
291.762	607.51107
292.094	578.87566
292.425	569.31875
292.757	579.93717
293.089	601.15215
293.42	589.48748
293.752	549.12314
294.083	558.69289
294.414	583.12126
294.746	574.62889
295.077	572.50506
295.408	604.33193
295.74	623.39736
296.071	590.54827
296.402	566.13178
296.733	591.60898
297.064	600.09208
297.395	578.87566
297.726	567.19418
298.056	585.24363
298.387	583.12126
298.718	589.48748
299.049	609.63015
299.379	567.19418
299.71	567.19418
300.04	600.09208
300.371	588.42663
300.701	580.99861
301.031	599.03194
301.362	599.03194
301.692	607.51107
302.022	574.62889
302.352	546.99569
302.682	573.56701
303.012	575.69069
303.342	561.88144
303.672	559.75581
304.002	585.24363
304.332	589.48748
304.662	595.8511
304.992	601.15215
305.321	579.93717
305.651	573.56701
305.98	588.42663
306.31	575.69069
306.639	586.3047
306.969	588.42663
307.298	554.44043
307.628	561.88144
307.957	577.81408
308.286	591.60898
308.615	617.04472
308.944	617.04472
309.273	561.88144
309.602	548.05945
309.931	600.09208
310.26	633.97964
310.589	627.63109
310.918	599.03194
311.247	576.75242
311.575	562.94414
311.904	552.31374
312.233	576.75242
312.561	600.09208
312.89	576.75242
313.218	599.03194
313.546	618.10366
313.875	572.50506
314.203	566.13178
314.531	585.24363
314.859	578.87566
315.188	556.56681
315.516	587.3657
315.844	594.79068
316.172	574.62889
316.5	577.81408
316.827	578.87566
317.155	576.75242
317.483	556.56681
317.811	548.05945
318.138	551.25029
318.466	585.24363
318.794	606.45143
319.121	568.25651
319.449	565.06931
319.776	567.19418
320.103	539.54717
320.431	560.81866
320.758	594.79068
321.085	595.8511
321.412	580.99861
321.739	580.99861
322.066	593.73018
322.393	575.69069
322.72	557.62989
323.047	588.42663
323.374	636.09528
323.701	627.63109
324.028	599.03194
324.354	576.75242
324.681	559.75581
325.008	582.05997
325.334	608.57064
325.661	603.27207
325.987	594.79068
326.314	599.03194
326.64	568.25651
326.966	544.86793
327.293	571.44303
327.619	610.68958
327.945	594.79068
328.271	584.18248
328.597	603.27207
328.923	587.3657
329.249	564.00676
329.575	558.69289
329.901	569.31875
330.227	561.88144
330.552	605.39171
330.878	617.04472
331.204	586.3047
331.529	586.3047
331.855	602.21215
332.18	601.15215
332.506	562.94414
332.831	542.73986
333.156	593.73018
333.482	615.9857
333.807	572.50506
334.132	568.25651
334.457	579.93717
334.782	566.13178
335.107	564.00676
335.432	578.87566
335.757	567.19418
336.082	568.25651
336.407	579.93717
336.732	588.42663
337.057	592.66961
337.381	560.81866
337.706	538.48278
338.031	573.56701
338.355	595.8511
338.68	593.73018
339.004	578.87566
339.329	591.60898
339.653	591.60898
339.977	567.19418
340.301	602.21215
340.626	605.39171
340.95	580.99861
341.274	578.87566
341.598	575.69069
341.922	579.93717
342.246	577.81408
342.57	601.15215
342.894	606.45143
343.218	579.93717
343.541	586.3047
343.865	603.27207
344.189	600.09208
344.512	608.57064
344.836	606.45143
345.159	555.50366
345.483	561.88144
345.806	587.3657
346.13	590.54827
346.453	575.69069
346.776	562.94414
347.099	582.05997
347.423	560.81866
347.746	568.25651
348.069	583.12126
348.392	570.38093
348.715	591.60898
349.038	577.81408
349.361	541.6757
349.683	548.05945
350.006	567.19418
350.329	571.44303
350.652	577.81408
350.974	573.56701
351.297	578.87566
351.619	602.21215
351.942	573.56701
352.264	574.62889
352.587	571.44303
352.909	531.0299
353.231	570.38093
353.554	610.68958
353.876	586.3047
354.198	607.51107
354.52	615.9857
354.842	561.88144
355.164	558.69289
355.486	570.38093
355.808	571.44303
356.13	584.18248
356.452	632.92172
356.773	609.63015
357.095	555.50366
357.417	557.62989
357.738	561.88144
358.06	596.91145
358.381	594.79068
358.703	566.13178
359.024	572.50506
359.346	583.12126
359.667	560.81866
359.988	553.37712
360.309	573.56701
360.631	544.86793
360.952	543.80393
361.273	567.19418
361.594	586.3047
361.915	607.51107
362.236	594.79068
362.557	589.48748
362.878	583.12126
363.198	576.75242
363.519	590.54827
363.84	594.79068
364.16	572.50506
364.481	587.3657
364.802	570.38093
365.122	558.69289
365.443	610.68958
365.763	620.22135
366.083	594.79068
366.404	562.94414
366.724	550.18675
367.044	568.25651
367.364	589.48748
367.685	599.03194
368.005	562.94414
368.325	532.09483
368.645	537.41832
368.965	550.18675
369.284	576.75242
369.604	589.48748
369.924	591.60898
370.244	570.38093
370.564	552.31374
370.883	564.00676
371.203	573.56701
371.522	582.05997
371.842	593.73018
372.161	596.91145
372.481	592.66961
372.8	570.38093
373.119	591.60898
373.439	605.39171
373.758	584.18248
374.077	561.88144
374.396	557.62989
374.715	588.42663
375.034	556.56681
375.353	556.56681
375.672	571.44303
375.991	545.93185
376.31	552.31374
376.629	573.56701
376.948	569.31875
377.266	573.56701
377.585	609.63015
377.904	595.8511
378.222	561.88144
378.541	551.25029
378.859	566.13178
379.178	589.48748
379.496	555.50366
379.814	542.73986
380.133	551.25029
380.451	520.37619
380.769	511.84745
381.087	534.22446
381.405	546.99569
381.723	570.38093
382.041	595.8511
382.359	588.42663
382.677	579.93717
382.995	590.54827
383.313	604.33193
383.631	577.81408
383.949	564.00676
384.266	570.38093
384.584	561.88144
384.901	572.50506
385.219	566.13178
385.537	559.75581
385.854	578.87566
386.171	579.93717
386.489	564.00676
386.806	577.81408
387.123	599.03194
387.441	561.88144
387.758	567.19418
388.075	591.60898
388.392	582.05997
388.709	588.42663
389.026	574.62889
389.343	569.31875
389.66	587.3657
389.977	604.33193
390.294	588.42663
390.61	552.31374
390.927	587.3657
391.244	632.92172
391.56	617.04472
391.877	575.69069
392.193	546.99569
392.51	572.50506
392.826	576.75242
393.143	582.05997
393.459	593.73018
393.775	580.99861
394.092	595.8511
394.408	593.73018
394.724	600.09208
395.04	586.3047
395.356	538.48278
395.672	553.37712
395.988	557.62989
396.304	561.88144
396.62	573.56701
396.936	588.42663
397.252	585.24363
397.567	552.31374
397.883	572.50506
398.199	567.19418
398.514	561.88144
398.83	569.31875
399.146	580.99861
399.461	586.3047
399.777	599.03194
400.092	593.73018
400.407	549.12314
400.723	552.31374
401.038	564.00676
401.353	556.56681
401.668	556.56681
401.983	557.62989
402.298	565.06931
402.613	575.69069
402.928	584.18248
403.243	578.87566
403.558	568.25651
403.873	577.81408
404.188	588.42663
404.503	597.97173
404.817	615.9857
405.132	592.66961
405.447	577.81408
405.761	597.97173
406.076	586.3047
406.39	546.99569
406.705	545.93185
407.019	591.60898
407.334	564.00676
407.648	548.05945
407.962	567.19418
408.276	568.25651
408.591	585.24363
408.905	589.48748
409.219	595.8511
409.533	590.54827
409.847	588.42663
410.161	588.42663
410.475	564.00676
410.789	546.99569
411.102	567.19418
411.416	596.91145
411.73	570.38093
412.044	543.80393
412.357	582.05997
412.671	603.27207
412.984	576.75242
413.298	566.13178
413.611	583.12126
413.925	569.31875
414.238	567.19418
414.552	604.33193
414.865	588.42663
415.178	577.81408
415.491	576.75242
415.804	580.99861
416.118	588.42663
416.431	577.81408
416.744	583.12126
417.057	566.13178
417.37	574.62889
417.683	583.12126
417.995	587.3657
418.308	583.12126
418.621	572.50506
418.934	567.19418
419.246	555.50366
419.559	552.31374
419.872	576.75242
420.184	551.25029
420.497	543.80393
420.809	590.54827
421.121	574.62889
421.434	543.80393
421.746	539.54717
422.058	579.93717
422.371	584.18248
422.683	550.18675
422.995	555.50366
423.307	579.93717
423.619	583.12126
423.931	565.06931
424.243	584.18248
424.555	567.19418
424.867	561.88144
425.179	628.68935
425.491	611.74894
425.802	570.38093
426.114	606.45143
426.426	610.68958
426.737	571.44303
427.049	566.13178
427.361	583.12126
427.672	593.73018
427.984	583.12126
428.295	580.99861
428.606	578.87566
428.918	595.8511
429.229	672.02082
429.54	648.78353
429.851	584.18248
430.163	561.88144
430.474	549.12314
430.785	571.44303
431.096	577.81408
431.407	587.3657
431.718	597.97173
432.029	578.87566
432.339	542.73986
432.65	578.87566
432.961	601.15215
433.272	565.06931
433.582	568.25651
433.893	592.66961
434.204	589.48748
434.514	583.12126
434.825	595.8511
435.135	593.73018
435.446	591.60898
435.756	577.81408
436.066	560.81866
436.377	585.24363
436.687	588.42663
436.997	567.19418
437.307	556.56681
437.617	564.00676
437.927	567.19418
438.237	569.31875
438.547	566.13178
438.857	570.38093
439.167	567.19418
439.477	566.13178
439.787	564.00676
440.097	539.54717
440.407	569.31875
440.716	577.81408
441.026	583.12126
441.336	596.91145
441.645	606.45143
441.955	597.97173
442.264	567.19418
442.574	579.93717
442.883	603.27207
443.192	568.25651
443.502	576.75242
443.811	622.33876
444.12	621.28009
444.429	580.99861
444.739	580.99861
445.048	614.92662
445.357	614.92662
445.666	579.93717
445.975	548.05945
446.284	552.31374
446.593	579.93717
446.901	579.93717
447.21	557.62989
447.519	543.80393
447.828	562.94414
448.136	599.03194
448.445	593.73018
448.754	589.48748
449.062	574.62889
449.371	573.56701
449.679	583.12126
449.988	576.75242
450.296	566.13178
450.605	549.12314
450.913	595.8511
451.221	657.23708
451.529	595.8511
451.838	536.35378
452.146	558.69289
452.454	587.3657
452.762	619.16254
453.07	604.33193
453.378	582.05997
453.686	572.50506
453.994	571.44303
454.302	604.33193
454.609	606.45143
454.917	578.87566
455.225	559.75581
455.533	560.81866
455.84	564.00676
456.148	560.81866
456.455	567.19418
456.763	578.87566
457.07	607.51107
457.378	626.57276
457.685	589.48748
457.993	541.6757
458.3	561.88144
458.607	590.54827
458.915	567.19418
459.222	578.87566
459.529	601.15215
459.836	566.13178
460.143	551.25029
460.45	565.06931
460.757	579.93717
461.064	569.31875
461.371	573.56701
461.678	589.48748
461.985	570.38093
462.292	585.24363
462.598	607.51107
462.905	601.15215
463.212	590.54827
463.518	559.75581
463.825	534.22446
464.131	571.44303
464.438	584.18248
464.744	560.81866
465.051	561.88144
465.357	548.05945
465.664	538.48278
465.97	549.12314
466.276	562.94414
466.582	565.06931
466.889	555.50366
467.195	565.06931
467.501	580.99861
467.807	583.12126
468.113	593.73018
468.419	573.56701
468.725	568.25651
469.031	584.18248
469.337	602.21215
469.642	614.92662
469.948	607.51107
470.254	605.39171
470.56	592.66961
470.865	579.93717
471.171	558.69289
471.477	569.31875
471.782	578.87566
472.088	585.24363
472.393	611.74894
472.698	579.93717
473.004	552.31374
473.309	592.66961
473.614	594.79068
473.92	569.31875
474.225	557.62989
474.53	545.93185
474.835	540.61148
475.14	529.96488
475.445	555.50366
475.75	594.79068
476.055	590.54827
476.36	591.60898
476.665	604.33193
476.97	599.03194
477.275	592.66961
477.58	587.3657
477.885	579.93717
478.189	571.44303
478.494	572.50506
478.799	576.75242
479.103	576.75242
479.408	578.87566
479.712	592.66961
480.017	607.51107
480.321	596.91145
480.625	594.79068
480.93	586.3047
481.234	544.86793
481.538	541.6757
481.843	566.13178
482.147	558.69289
482.451	548.05945
482.755	559.75581
483.059	570.38093
483.363	584.18248
483.667	609.63015
483.971	594.79068
484.275	552.31374
484.579	570.38093
484.883	593.73018
485.187	590.54827
485.49	585.24363
485.794	571.44303
486.098	579.93717
486.401	591.60898
486.705	565.06931
487.009	552.31374
487.312	567.19418
487.616	578.87566
487.919	569.31875
488.222	561.88144
488.526	566.13178
488.829	580.99861
489.132	572.50506
489.436	571.44303
489.739	601.15215
490.042	595.8511
490.345	602.21215
490.648	615.9857
490.951	611.74894
491.254	596.91145
491.557	580.99861
491.86	588.42663
492.163	573.56701
492.466	566.13178
492.769	571.44303
493.072	555.50366
493.375	569.31875
493.677	577.81408
493.98	578.87566
494.283	573.56701
494.585	562.94414
494.888	569.31875
495.19	575.69069
495.493	568.25651
495.795	556.56681
496.098	575.69069
496.4	572.50506
496.702	556.56681
497.005	574.62889
497.307	594.79068
497.609	591.60898
497.911	594.79068
498.213	599.03194
498.515	588.42663
498.818	572.50506
499.12	567.19418
499.422	585.24363
499.723	593.73018
500.025	612.80824
500.327	593.73018
500.629	550.18675
500.931	565.06931
501.233	593.73018
501.534	592.66961
501.836	567.19418
502.138	546.99569
502.439	554.44043
502.741	582.05997
503.042	578.87566
503.344	556.56681
503.645	578.87566
503.947	593.73018
504.248	573.56701
504.55	571.44303
504.851	590.54827
505.152	579.93717
505.453	590.54827
505.755	615.9857
506.056	576.75242
506.357	589.48748
506.658	618.10366
506.959	589.48748
507.26	607.51107
507.561	594.79068
507.862	548.05945
508.163	548.05945
508.464	577.81408
508.764	618.10366
509.065	614.92662
509.366	593.73018
509.667	559.75581
509.967	542.73986
510.268	555.50366
510.569	575.69069
510.869	567.19418
511.17	579.93717
511.47	615.9857
511.771	580.99861
512.071	577.81408
512.371	590.54827
512.672	570.38093
512.972	564.00676
513.272	586.3047
513.573	599.03194
513.873	591.60898
514.173	588.42663
514.473	558.69289
514.773	564.00676
515.073	590.54827
515.373	568.25651
515.673	558.69289
515.973	569.31875
516.273	583.12126
516.573	588.42663
516.873	564.00676
517.172	552.31374
517.472	544.86793
517.772	568.25651
518.072	575.69069
518.371	559.75581
518.671	567.19418
518.97	550.18675
519.27	550.18675
519.569	577.81408
519.869	588.42663
520.168	605.39171
520.468	597.97173
520.767	558.69289
521.066	558.69289
521.366	557.62989
521.665	568.25651
521.964	567.19418
522.263	561.88144
522.562	592.66961
522.861	603.27207
523.161	565.06931
523.46	550.18675
523.759	571.44303
524.057	582.05997
524.356	559.75581
524.655	554.44043
524.954	558.69289
525.253	567.19418
525.552	596.91145
525.85	571.44303
526.149	555.50366
526.448	575.69069
526.746	561.88144
527.045	557.62989
527.344	604.33193
527.642	625.51436
527.941	607.51107
528.239	597.97173
528.537	597.97173
528.836	573.56701
529.134	548.05945
529.432	559.75581
529.731	576.75242
530.029	574.62889
530.327	573.56701
530.625	583.12126
530.923	552.31374
531.221	536.35378
531.52	574.62889
531.818	567.19418
532.116	545.93185
532.413	554.44043
532.711	577.81408
533.009	573.56701
533.307	574.62889
533.605	580.99861
533.903	590.54827
534.2	597.97173
534.498	551.25029
534.796	525.70404
535.093	556.56681
535.391	584.18248
535.689	584.18248
535.986	570.38093
536.284	552.31374
536.581	567.19418
536.878	591.60898
537.176	589.48748
537.473	589.48748
537.77	608.57064
538.068	604.33193
538.365	605.39171
538.662	590.54827
538.959	570.38093
539.256	586.3047
539.554	587.3657
