Data from dark_beginning_ST026791__140__1238.txt Node

Date: Mon Aug 18 22:10:42 AEST 2025
User: mathewyoussef
Spectrometer: ST02679
Trigger mode: 0
Integration Time (sec): 6.653700E-1
Scans to average: 1
Nonlinearity correction enabled: true
Boxcar width: 0
Storing dark spectrum: false
XAxis mode: Wavelengths
Number of Pixels in Spectrum: 1516
>>>>>Begin Spectral Data<<<<<
187.304	589.48748
187.653	591.60898
188.002	582.05997
188.351	583.12126
188.7	578.87566
189.048	601.15215
189.397	624.4559
189.746	597.97173
190.094	579.93717
190.443	578.87566
190.791	560.81866
191.14	569.31875
191.488	576.75242
191.837	572.50506
192.185	573.56701
192.533	570.38093
192.881	572.50506
193.229	559.75581
193.577	562.94414
193.925	585.24363
194.273	578.87566
194.621	575.69069
194.969	588.42663
195.317	587.3657
195.664	572.50506
196.012	589.48748
196.359	582.05997
196.707	550.18675
197.054	552.31374
197.402	584.18248
197.749	580.99861
198.096	560.81866
198.443	587.3657
198.791	588.42663
199.138	566.13178
199.485	559.75581
199.832	583.12126
200.179	588.42663
200.525	582.05997
200.872	610.68958
201.219	567.19418
201.566	568.25651
201.912	589.48748
202.259	579.93717
202.605	582.05997
202.952	577.81408
203.298	585.24363
203.644	566.13178
203.991	558.69289
204.337	578.87566
204.683	587.3657
205.029	576.75242
205.375	587.3657
205.721	615.9857
206.067	603.27207
206.413	584.18248
206.759	562.94414
207.104	536.35378
207.45	576.75242
207.796	620.22135
208.141	583.12126
208.487	560.81866
208.832	585.24363
209.177	570.38093
209.523	568.25651
209.868	562.94414
210.213	555.50366
210.558	570.38093
210.903	591.60898
211.248	592.66961
211.593	564.00676
211.938	575.69069
212.283	614.92662
212.628	601.15215
212.973	567.19418
213.317	582.05997
213.662	590.54827
214.007	566.13178
214.351	566.13178
214.696	580.99861
215.04	579.93717
215.384	569.31875
215.729	556.56681
216.073	573.56701
216.417	597.97173
216.761	591.60898
217.105	574.62889
217.449	574.62889
217.793	583.12126
218.137	559.75581
218.481	568.25651
218.824	587.3657
219.168	588.42663
219.512	594.79068
219.855	575.69069
220.199	557.62989
220.542	545.93185
220.886	574.62889
221.229	607.51107
221.572	590.54827
221.916	584.18248
222.259	595.8511
222.602	593.73018
222.945	578.87566
223.288	575.69069
223.631	561.88144
223.974	548.05945
224.317	555.50366
224.659	579.93717
225.002	601.15215
225.345	561.88144
225.687	565.06931
226.03	597.97173
226.372	589.48748
226.715	575.69069
227.057	572.50506
227.4	566.13178
227.742	575.69069
228.084	579.93717
228.426	588.42663
228.768	592.66961
229.11	574.62889
229.452	566.13178
229.794	576.75242
230.136	585.24363
230.478	574.62889
230.82	564.00676
231.161	556.56681
231.503	593.73018
231.845	594.79068
232.186	635.0375
232.528	637.15301
232.869	571.44303
233.21	568.25651
233.552	561.88144
233.893	566.13178
234.234	559.75581
234.575	572.50506
234.916	623.39736
235.257	608.57064
235.598	587.3657
235.939	606.45143
236.28	602.21215
236.621	577.81408
236.961	590.54827
237.302	605.39171
237.643	586.3047
237.983	592.66961
238.324	586.3047
238.664	582.05997
239.005	593.73018
239.345	578.87566
239.685	584.18248
240.025	604.33193
240.366	575.69069
240.706	565.06931
241.046	591.60898
241.386	609.63015
241.726	595.8511
242.066	569.31875
242.405	546.99569
242.745	555.50366
243.085	599.03194
243.425	605.39171
243.764	599.03194
244.104	590.54827
244.443	584.18248
244.783	593.73018
245.122	589.48748
245.461	595.8511
245.801	603.27207
246.14	588.42663
246.479	577.81408
246.818	580.99861
247.157	589.48748
247.496	602.21215
247.835	588.42663
248.174	591.60898
248.513	597.97173
248.852	626.57276
249.19	618.10366
249.529	562.94414
249.868	571.44303
250.206	595.8511
250.545	579.93717
250.883	564.00676
251.221	567.19418
251.56	565.06931
251.898	564.00676
252.236	557.62989
252.574	542.73986
252.912	525.70404
253.25	542.73986
253.588	579.93717
253.926	594.79068
254.264	582.05997
254.602	571.44303
254.94	576.75242
255.278	567.19418
255.615	561.88144
255.953	577.81408
256.29	587.3657
256.628	573.56701
256.965	572.50506
257.303	567.19418
257.64	599.03194
257.977	623.39736
258.314	583.12126
258.652	562.94414
258.989	570.38093
259.326	566.13178
259.663	560.81866
260	580.99861
260.337	558.69289
260.673	543.80393
261.01	575.69069
261.347	570.38093
261.684	554.44043
262.02	565.06931
262.357	583.12126
262.693	560.81866
263.03	545.93185
263.366	576.75242
263.702	575.69069
264.039	576.75242
264.375	600.09208
264.711	588.42663
265.047	549.12314
265.383	557.62989
265.719	576.75242
266.055	574.62889
266.391	596.91145
266.727	589.48748
267.063	600.09208
267.399	587.3657
267.734	559.75581
268.07	588.42663
268.405	590.54827
268.741	569.31875
269.076	574.62889
269.412	590.54827
269.747	579.93717
270.082	564.00676
270.418	552.31374
270.753	544.86793
271.088	550.18675
271.423	557.62989
271.758	540.61148
272.093	572.50506
272.428	595.8511
272.763	593.73018
273.098	596.91145
273.433	583.12126
273.767	576.75242
274.102	582.05997
274.436	585.24363
274.771	578.87566
275.106	579.93717
275.44	600.09208
275.774	618.10366
276.109	602.21215
276.443	586.3047
276.777	571.44303
277.111	562.94414
277.445	578.87566
277.78	579.93717
278.114	595.8511
278.447	601.15215
278.781	578.87566
279.115	573.56701
279.449	572.50506
279.783	578.87566
280.116	575.69069
280.45	558.69289
280.784	585.24363
281.117	618.10366
281.451	586.3047
281.784	608.57064
282.117	609.63015
282.451	589.48748
282.784	588.42663
283.117	585.24363
283.45	592.66961
283.783	589.48748
284.116	593.73018
284.449	564.00676
284.782	605.39171
285.115	620.22135
285.448	568.25651
285.781	552.31374
286.114	545.93185
286.446	580.99861
286.779	597.97173
287.111	595.8511
287.444	571.44303
287.776	582.05997
288.109	595.8511
288.441	583.12126
288.773	589.48748
289.106	599.03194
289.438	603.27207
289.77	583.12126
290.102	560.81866
290.434	557.62989
290.766	602.21215
291.098	589.48748
291.43	557.62989
291.762	588.42663
292.094	605.39171
292.425	587.3657
292.757	585.24363
293.089	570.38093
293.42	577.81408
293.752	595.8511
294.083	562.94414
294.414	570.38093
294.746	582.05997
295.077	578.87566
295.408	558.69289
295.74	556.56681
296.071	573.56701
296.402	578.87566
296.733	577.81408
297.064	565.06931
297.395	576.75242
297.726	586.3047
298.056	579.93717
298.387	579.93717
298.718	588.42663
299.049	599.03194
299.379	571.44303
299.71	548.05945
300.04	578.87566
300.371	595.8511
300.701	586.3047
301.031	587.3657
301.362	577.81408
301.692	564.00676
302.022	569.31875
302.352	583.12126
302.682	562.94414
303.012	544.86793
303.342	554.44043
303.672	564.00676
304.002	568.25651
304.332	565.06931
304.662	559.75581
304.992	540.61148
305.321	564.00676
305.651	577.81408
305.98	573.56701
306.31	592.66961
306.639	583.12126
306.969	561.88144
307.298	541.6757
307.628	545.93185
307.957	576.75242
308.286	567.19418
308.615	541.6757
308.944	541.6757
309.273	552.31374
309.602	569.31875
309.931	580.99861
310.26	571.44303
310.589	568.25651
310.918	560.81866
311.247	566.13178
311.575	570.38093
311.904	566.13178
312.233	586.3047
312.561	585.24363
312.89	553.37712
313.218	572.50506
313.546	591.60898
313.875	576.75242
314.203	582.05997
314.531	587.3657
314.859	582.05997
315.188	571.44303
315.516	560.81866
315.844	584.18248
316.172	594.79068
316.5	580.99861
316.827	621.28009
317.155	618.10366
317.483	603.27207
317.811	604.33193
318.138	585.24363
318.466	589.48748
318.794	589.48748
319.121	569.31875
319.449	564.00676
319.776	557.62989
320.103	553.37712
320.431	588.42663
320.758	601.15215
321.085	592.66961
321.412	583.12126
321.739	587.3657
322.066	569.31875
322.393	568.25651
322.72	575.69069
323.047	566.13178
323.374	595.8511
323.701	573.56701
324.028	541.6757
324.354	541.6757
324.681	545.93185
325.008	596.91145
325.334	620.22135
325.661	603.27207
325.987	597.97173
326.314	594.79068
326.64	571.44303
326.966	550.18675
327.293	564.00676
327.619	578.87566
327.945	584.18248
328.271	586.3047
328.597	587.3657
328.923	591.60898
329.249	585.24363
329.575	570.38093
329.901	562.94414
330.227	566.13178
330.552	568.25651
330.878	577.81408
331.204	607.51107
331.529	577.81408
331.855	579.93717
332.18	599.03194
332.506	575.69069
332.831	583.12126
333.156	578.87566
333.482	571.44303
333.807	589.48748
334.132	588.42663
334.457	577.81408
334.782	567.19418
335.107	568.25651
335.432	589.48748
335.757	560.81866
336.082	554.44043
336.407	562.94414
336.732	556.56681
337.057	570.38093
337.381	566.13178
337.706	571.44303
338.031	580.99861
338.355	568.25651
338.68	568.25651
339.004	575.69069
339.329	584.18248
339.653	575.69069
339.977	538.48278
340.301	562.94414
340.626	602.21215
340.95	601.15215
341.274	587.3657
341.598	579.93717
341.922	588.42663
342.246	579.93717
342.57	562.94414
342.894	567.19418
343.218	583.12126
343.541	576.75242
343.865	570.38093
344.189	584.18248
344.512	575.69069
344.836	553.37712
345.159	539.54717
345.483	541.6757
345.806	552.31374
346.13	571.44303
346.453	589.48748
346.776	607.51107
347.099	618.10366
347.423	595.8511
347.746	555.50366
348.069	568.25651
348.392	602.21215
348.715	588.42663
349.038	595.8511
349.361	579.93717
349.683	557.62989
350.006	578.87566
350.329	553.37712
350.652	560.81866
350.974	556.56681
351.297	562.94414
351.619	603.27207
351.942	617.04472
352.264	619.16254
352.587	580.99861
352.909	555.50366
353.231	553.37712
353.554	571.44303
353.876	579.93717
354.198	554.44043
354.52	570.38093
354.842	589.48748
355.164	576.75242
355.486	576.75242
355.808	560.81866
356.13	571.44303
356.452	617.04472
356.773	592.66961
357.095	554.44043
357.417	577.81408
357.738	578.87566
358.06	569.31875
358.381	560.81866
358.703	564.00676
359.024	597.97173
359.346	561.88144
359.667	532.09483
359.988	583.12126
360.309	577.81408
360.631	558.69289
360.952	565.06931
361.273	548.05945
361.594	571.44303
361.915	592.66961
362.236	551.25029
362.557	559.75581
362.878	591.60898
363.198	592.66961
363.519	591.60898
363.84	570.38093
364.16	588.42663
364.481	621.28009
364.802	617.04472
365.122	596.91145
365.443	568.25651
365.763	560.81866
366.083	571.44303
366.404	568.25651
366.724	564.00676
367.044	587.3657
367.364	564.00676
367.685	536.35378
368.005	554.44043
368.325	550.18675
368.645	561.88144
368.965	577.81408
369.284	570.38093
369.604	528.89979
369.924	540.61148
370.244	610.68958
370.564	591.60898
370.883	552.31374
371.203	556.56681
371.522	556.56681
371.842	571.44303
372.161	578.87566
372.481	562.94414
372.8	571.44303
373.119	571.44303
373.439	558.69289
373.758	590.54827
374.077	583.12126
374.396	558.69289
374.715	584.18248
375.034	583.12126
375.353	556.56681
375.672	538.48278
375.991	577.81408
376.31	588.42663
376.629	565.06931
376.948	587.3657
377.266	590.54827
377.585	597.97173
377.904	592.66961
378.222	583.12126
378.541	577.81408
378.859	587.3657
379.178	591.60898
379.496	557.62989
379.814	552.31374
380.133	562.94414
380.451	566.13178
380.769	566.13178
381.087	545.93185
381.405	557.62989
381.723	584.18248
382.041	595.8511
382.359	605.39171
382.677	588.42663
382.995	576.75242
383.313	580.99861
383.631	568.25651
383.949	559.75581
384.266	557.62989
384.584	587.3657
384.901	590.54827
385.219	565.06931
385.537	568.25651
385.854	566.13178
386.171	555.50366
386.489	522.50757
386.806	541.6757
387.123	583.12126
387.441	561.88144
387.758	590.54827
388.075	595.8511
388.392	569.31875
388.709	580.99861
389.026	569.31875
389.343	561.88144
389.66	580.99861
389.977	601.15215
390.294	537.41832
390.61	542.73986
390.927	586.3047
391.244	577.81408
391.56	597.97173
391.877	584.18248
392.193	560.81866
392.51	577.81408
392.826	582.05997
393.143	575.69069
393.459	595.8511
393.775	592.66961
394.092	586.3047
394.408	592.66961
394.724	554.44043
395.04	535.28916
395.356	531.0299
395.672	540.61148
395.988	562.94414
396.304	560.81866
396.62	580.99861
396.936	576.75242
397.252	559.75581
397.567	562.94414
397.883	552.31374
398.199	558.69289
398.514	569.31875
398.83	587.3657
399.146	604.33193
399.461	605.39171
399.777	572.50506
400.092	559.75581
400.407	562.94414
400.723	542.73986
401.038	567.19418
401.353	559.75581
401.668	534.22446
401.983	554.44043
402.298	571.44303
402.613	575.69069
402.928	582.05997
403.243	571.44303
403.558	549.12314
403.873	552.31374
404.188	570.38093
404.503	573.56701
404.817	569.31875
405.132	577.81408
405.447	565.06931
405.761	585.24363
406.076	590.54827
406.39	549.12314
406.705	550.18675
407.019	574.62889
407.334	586.3047
407.648	582.05997
407.962	553.37712
408.276	559.75581
408.591	604.33193
408.905	588.42663
409.219	570.38093
409.533	562.94414
409.847	550.18675
410.161	549.12314
410.475	571.44303
410.789	579.93717
411.102	577.81408
411.416	621.28009
411.73	623.39736
412.044	580.99861
412.357	573.56701
412.671	567.19418
412.984	545.93185
413.298	561.88144
413.611	571.44303
413.925	597.97173
414.238	601.15215
414.552	580.99861
414.865	602.21215
415.178	595.8511
415.491	574.62889
415.804	591.60898
416.118	605.39171
416.431	583.12126
416.744	574.62889
417.057	564.00676
417.37	582.05997
417.683	596.91145
417.995	566.13178
418.308	569.31875
418.621	562.94414
418.934	554.44043
419.246	566.13178
419.559	566.13178
419.872	568.25651
420.184	569.31875
420.497	560.81866
420.809	569.31875
421.121	586.3047
421.434	577.81408
421.746	571.44303
422.058	576.75242
422.371	593.73018
422.683	592.66961
422.995	579.93717
423.307	575.69069
423.619	582.05997
423.931	554.44043
424.243	531.0299
424.555	564.00676
424.867	588.42663
425.179	618.10366
425.491	597.97173
425.802	560.81866
426.114	557.62989
426.426	555.50366
426.737	557.62989
427.049	576.75242
427.361	593.73018
427.672	573.56701
427.984	562.94414
428.295	582.05997
428.606	567.19418
428.918	556.56681
429.229	645.61237
429.54	633.97964
429.851	562.94414
430.163	566.13178
430.474	569.31875
430.785	592.66961
431.096	596.91145
431.407	604.33193
431.718	597.97173
432.029	592.66961
432.339	594.79068
432.65	577.81408
432.961	576.75242
433.272	588.42663
433.582	587.3657
433.893	572.50506
434.204	559.75581
434.514	532.09483
434.825	552.31374
435.135	584.18248
435.446	590.54827
435.756	595.8511
436.066	586.3047
436.377	586.3047
436.687	585.24363
436.997	583.12126
437.307	582.05997
437.617	560.81866
437.927	573.56701
438.237	583.12126
438.547	571.44303
438.857	560.81866
439.167	583.12126
439.477	596.91145
439.787	570.38093
440.097	569.31875
440.407	566.13178
440.716	559.75581
441.026	567.19418
441.336	590.54827
441.645	583.12126
441.955	578.87566
442.264	572.50506
442.574	575.69069
442.883	600.09208
443.192	584.18248
443.502	578.87566
443.811	586.3047
444.12	599.03194
444.429	573.56701
444.739	566.13178
445.048	606.45143
445.357	599.03194
445.666	558.69289
445.975	553.37712
446.284	573.56701
446.593	578.87566
446.901	579.93717
447.21	575.69069
447.519	577.81408
447.828	583.12126
448.136	592.66961
448.445	583.12126
448.754	552.31374
449.062	564.00676
449.371	565.06931
449.679	559.75581
449.988	573.56701
450.296	582.05997
450.605	569.31875
450.913	578.87566
451.221	635.0375
451.529	612.80824
451.838	564.00676
452.146	568.25651
452.454	565.06931
452.762	587.3657
453.07	594.79068
453.378	552.31374
453.686	559.75581
453.994	619.16254
454.302	627.63109
454.609	582.05997
454.917	566.13178
455.225	583.12126
455.533	575.69069
455.84	566.13178
456.148	571.44303
456.455	572.50506
456.763	572.50506
457.07	572.50506
457.378	591.60898
457.685	591.60898
457.993	571.44303
458.3	575.69069
458.607	606.45143
458.915	588.42663
459.222	559.75581
459.529	551.25029
459.836	534.22446
460.143	546.99569
460.45	562.94414
460.757	608.57064
461.064	593.73018
461.371	549.12314
461.678	557.62989
461.985	575.69069
462.292	574.62889
462.598	546.99569
462.905	556.56681
463.212	591.60898
463.518	588.42663
463.825	555.50366
464.131	569.31875
464.438	603.27207
464.744	557.62989
465.051	519.31038
465.357	567.19418
465.664	583.12126
465.97	578.87566
466.276	582.05997
466.582	580.99861
466.889	571.44303
467.195	575.69069
467.501	576.75242
467.807	576.75242
468.113	571.44303
468.419	552.31374
468.725	562.94414
469.031	582.05997
469.337	605.39171
469.642	606.45143
469.948	582.05997
470.254	568.25651
470.56	588.42663
470.865	593.73018
471.171	567.19418
471.477	550.18675
471.782	557.62989
472.088	556.56681
472.393	591.60898
472.698	603.27207
473.004	572.50506
473.309	595.8511
473.614	586.3047
473.92	571.44303
474.225	591.60898
474.53	597.97173
474.835	567.19418
475.14	545.93185
475.445	570.38093
475.75	593.73018
476.055	589.48748
476.36	561.88144
476.665	540.61148
476.97	565.06931
477.275	601.15215
477.58	573.56701
477.885	552.31374
478.189	545.93185
478.494	542.73986
478.799	570.38093
479.103	583.12126
479.408	545.93185
479.712	545.93185
480.017	575.69069
480.321	580.99861
480.625	558.69289
480.93	537.41832
481.234	559.75581
481.538	550.18675
481.843	546.99569
482.147	574.62889
482.451	574.62889
482.755	585.24363
483.059	595.8511
483.363	575.69069
483.667	577.81408
483.971	578.87566
484.275	565.06931
484.579	565.06931
484.883	595.8511
485.187	604.33193
485.49	582.05997
485.794	583.12126
486.098	588.42663
486.401	561.88144
486.705	572.50506
487.009	570.38093
487.312	537.41832
487.616	569.31875
487.919	570.38093
488.222	569.31875
488.526	564.00676
488.829	538.48278
489.132	548.05945
489.436	560.81866
489.739	562.94414
490.042	572.50506
490.345	593.73018
490.648	588.42663
490.951	569.31875
491.254	590.54827
491.557	597.97173
491.86	552.31374
492.163	551.25029
492.466	579.93717
492.769	565.06931
493.072	571.44303
493.375	586.3047
493.677	570.38093
493.98	589.48748
494.283	587.3657
494.585	565.06931
494.888	575.69069
495.19	589.48748
495.493	597.97173
495.795	595.8511
496.098	584.18248
496.4	597.97173
496.702	626.57276
497.005	629.74755
497.307	647.72654
497.609	613.86746
497.911	566.13178
498.213	572.50506
498.515	582.05997
498.818	589.48748
499.12	589.48748
499.422	586.3047
499.723	585.24363
500.025	588.42663
500.327	584.18248
500.629	577.81408
500.931	572.50506
501.233	574.62889
501.534	583.12126
501.836	566.13178
502.138	545.93185
502.439	593.73018
502.741	603.27207
503.042	555.50366
503.344	552.31374
503.645	589.48748
503.947	586.3047
504.248	574.62889
504.55	568.25651
504.851	545.93185
505.152	559.75581
505.453	601.15215
505.755	608.57064
506.056	572.50506
506.357	552.31374
506.658	560.81866
506.959	575.69069
507.26	582.05997
507.561	575.69069
507.862	552.31374
508.163	559.75581
508.464	574.62889
508.764	565.06931
509.065	556.56681
509.366	569.31875
509.667	573.56701
509.967	570.38093
510.268	560.81866
510.569	584.18248
510.869	589.48748
511.17	559.75581
511.47	579.93717
511.771	585.24363
512.071	600.09208
512.371	578.87566
512.672	556.56681
512.972	586.3047
513.272	594.79068
513.573	594.79068
513.873	593.73018
514.173	602.21215
514.473	576.75242
514.773	577.81408
515.073	569.31875
515.373	543.80393
515.673	583.12126
515.973	592.66961
516.273	555.50366
516.573	534.22446
516.873	543.80393
517.172	574.62889
517.472	570.38093
517.772	577.81408
518.072	605.39171
518.371	601.15215
518.671	586.3047
518.97	583.12126
519.27	567.19418
519.569	588.42663
519.869	608.57064
520.168	579.93717
520.468	580.99861
520.767	585.24363
521.066	561.88144
521.366	550.18675
521.665	574.62889
521.964	565.06931
522.263	564.00676
522.562	593.73018
522.861	584.18248
523.161	574.62889
523.46	580.99861
523.759	566.13178
524.057	573.56701
524.356	608.57064
524.655	582.05997
524.954	550.18675
525.253	599.03194
525.552	625.51436
525.85	613.86746
526.149	573.56701
526.448	553.37712
526.746	553.37712
527.045	584.18248
527.344	637.15301
527.642	604.33193
527.941	579.93717
528.239	584.18248
528.537	589.48748
528.836	587.3657
529.134	570.38093
529.432	569.31875
529.731	578.87566
530.029	574.62889
530.327	582.05997
530.625	561.88144
530.923	521.44192
531.221	533.15969
531.52	557.62989
531.818	562.94414
532.116	543.80393
532.413	540.61148
532.711	568.25651
533.009	569.31875
533.307	561.88144
533.605	576.75242
533.903	573.56701
534.2	565.06931
534.498	574.62889
534.796	579.93717
535.093	565.06931
535.391	553.37712
535.689	577.81408
535.986	608.57064
536.284	578.87566
536.581	555.50366
536.878	567.19418
537.176	579.93717
537.473	599.03194
537.77	606.45143
538.068	597.97173
538.365	589.48748
538.662	586.3047
538.959	566.13178
539.256	535.28916
539.554	565.06931
539.851	610.68958
