Data from dark_beginning_ST026791__142__1240.txt Node

Date: Mon Aug 18 22:10:45 AEST 2025
User: mathewyoussef
Spectrometer: ST02679
Trigger mode: 0
Integration Time (sec): 6.653700E-1
Scans to average: 1
Nonlinearity correction enabled: true
Boxcar width: 0
Storing dark spectrum: false
XAxis mode: Wavelengths
Number of Pixels in Spectrum: 1516
>>>>>Begin Spectral Data<<<<<
187.304	583.12126
187.653	568.25651
188.002	572.50506
188.351	574.62889
188.7	574.62889
189.048	589.48748
189.397	579.93717
189.746	575.69069
190.094	571.44303
190.443	557.62989
190.791	574.62889
191.14	584.18248
191.488	571.44303
191.837	585.24363
192.185	595.8511
192.533	604.33193
192.881	585.24363
193.229	567.19418
193.577	605.39171
193.925	608.57064
194.273	594.79068
194.621	587.3657
194.969	552.31374
195.317	551.25029
195.664	571.44303
196.012	566.13178
196.359	558.69289
196.707	582.05997
197.054	584.18248
197.402	567.19418
197.749	579.93717
198.096	599.03194
198.443	605.39171
198.791	577.81408
199.138	567.19418
199.485	576.75242
199.832	571.44303
200.179	562.94414
200.525	575.69069
200.872	590.54827
201.219	583.12126
201.566	582.05997
201.912	589.48748
202.259	574.62889
202.605	574.62889
202.952	583.12126
203.298	569.31875
203.644	582.05997
203.991	576.75242
204.337	562.94414
204.683	544.86793
205.029	579.93717
205.375	586.3047
205.721	578.87566
206.067	612.80824
206.413	589.48748
206.759	590.54827
207.104	591.60898
207.45	579.93717
207.796	558.69289
208.141	545.93185
208.487	559.75581
208.832	573.56701
209.177	566.13178
209.523	594.79068
209.868	601.15215
210.213	574.62889
210.558	556.56681
210.903	553.37712
211.248	595.8511
211.593	594.79068
211.938	593.73018
212.283	593.73018
212.628	544.86793
212.973	553.37712
213.317	592.66961
213.662	565.06931
214.007	576.75242
214.351	592.66961
214.696	562.94414
215.04	560.81866
215.384	573.56701
215.729	567.19418
216.073	566.13178
216.417	600.09208
216.761	591.60898
217.105	557.62989
217.449	556.56681
217.793	578.87566
218.137	591.60898
218.481	604.33193
218.824	608.57064
219.168	580.99861
219.512	586.3047
219.855	575.69069
220.199	558.69289
220.542	569.31875
220.886	562.94414
221.229	571.44303
221.572	559.75581
221.916	552.31374
222.259	576.75242
222.602	567.19418
222.945	546.99569
223.288	559.75581
223.631	560.81866
223.974	561.88144
224.317	591.60898
224.659	594.79068
225.002	590.54827
225.345	559.75581
225.687	577.81408
226.03	570.38093
226.372	535.28916
226.715	543.80393
227.057	552.31374
227.4	586.3047
227.742	584.18248
228.084	557.62989
228.426	558.69289
228.768	568.25651
229.11	565.06931
229.452	596.91145
229.794	609.63015
230.136	577.81408
230.478	559.75581
230.82	543.80393
231.161	529.96488
231.503	573.56701
231.845	623.39736
232.186	658.29348
232.528	632.92172
232.869	550.18675
233.21	559.75581
233.552	578.87566
233.893	552.31374
234.234	542.73986
234.575	556.56681
234.916	592.66961
235.257	604.33193
235.598	573.56701
235.939	587.3657
236.28	571.44303
236.621	564.00676
236.961	592.66961
237.302	578.87566
237.643	569.31875
237.983	550.18675
238.324	571.44303
238.664	612.80824
239.005	596.91145
239.345	566.13178
239.685	548.05945
240.025	562.94414
240.366	562.94414
240.706	595.8511
241.046	591.60898
241.386	541.6757
241.726	550.18675
242.066	569.31875
242.405	559.75581
242.745	551.25029
243.085	564.00676
243.425	570.38093
243.764	611.74894
244.104	624.4559
244.443	612.80824
244.783	599.03194
245.122	562.94414
245.461	553.37712
245.801	600.09208
246.14	589.48748
246.479	555.50366
246.818	571.44303
247.157	588.42663
247.496	601.15215
247.835	574.62889
248.174	560.81866
248.513	580.99861
248.852	606.45143
249.19	575.69069
249.529	550.18675
249.868	593.73018
250.206	599.03194
250.545	578.87566
250.883	564.00676
251.221	564.00676
251.56	589.48748
251.898	595.8511
252.236	600.09208
252.574	579.93717
252.912	561.88144
253.25	573.56701
253.588	584.18248
253.926	578.87566
254.264	582.05997
254.602	593.73018
254.94	582.05997
255.278	567.19418
255.615	560.81866
255.953	569.31875
256.29	564.00676
256.628	561.88144
256.965	562.94414
257.303	574.62889
257.64	611.74894
257.977	612.80824
258.314	572.50506
258.652	571.44303
258.989	588.42663
259.326	577.81408
259.663	590.54827
260	594.79068
260.337	567.19418
260.673	564.00676
261.01	559.75581
261.347	559.75581
261.684	577.81408
262.02	578.87566
262.357	567.19418
262.693	560.81866
263.03	551.25029
263.366	561.88144
263.702	571.44303
264.039	558.69289
264.375	555.50366
264.711	571.44303
265.047	570.38093
265.383	556.56681
265.719	570.38093
266.055	586.3047
266.391	599.03194
266.727	601.15215
267.063	571.44303
267.399	546.99569
267.734	580.99861
268.07	602.21215
268.405	602.21215
268.741	605.39171
269.076	592.66961
269.412	580.99861
269.747	529.96488
270.082	550.18675
270.418	588.42663
270.753	587.3657
271.088	587.3657
271.423	573.56701
271.758	549.12314
272.093	540.61148
272.428	565.06931
272.763	609.63015
273.098	610.68958
273.433	571.44303
273.767	584.18248
274.102	566.13178
274.436	532.09483
274.771	558.69289
275.106	553.37712
275.44	556.56681
275.774	588.42663
276.109	555.50366
276.443	531.0299
276.777	552.31374
277.111	577.81408
277.445	575.69069
277.78	604.33193
278.114	626.57276
278.447	582.05997
278.781	570.38093
279.115	578.87566
279.449	575.69069
279.783	583.12126
280.116	587.3657
280.45	564.00676
280.784	570.38093
281.117	582.05997
281.451	570.38093
281.784	614.92662
282.117	624.4559
282.451	575.69069
282.784	570.38093
283.117	569.31875
283.45	590.54827
283.783	591.60898
284.116	557.62989
284.449	587.3657
284.782	619.16254
285.115	614.92662
285.448	585.24363
285.781	585.24363
286.114	574.62889
286.446	551.25029
286.779	588.42663
287.111	590.54827
287.444	565.06931
287.776	572.50506
288.109	576.75242
288.441	557.62989
288.773	543.80393
289.106	583.12126
289.438	609.63015
289.77	585.24363
290.102	566.13178
290.434	557.62989
290.766	580.99861
291.098	589.48748
291.43	574.62889
291.762	561.88144
292.094	568.25651
292.425	577.81408
292.757	582.05997
293.089	570.38093
293.42	569.31875
293.752	557.62989
294.083	553.37712
294.414	603.27207
294.746	606.45143
295.077	577.81408
295.408	571.44303
295.74	583.12126
296.071	570.38093
296.402	572.50506
296.733	584.18248
297.064	571.44303
297.395	574.62889
297.726	590.54827
298.056	606.45143
298.387	605.39171
298.718	612.80824
299.049	614.92662
299.379	570.38093
299.71	561.88144
300.04	551.25029
300.371	528.89979
300.701	559.75581
301.031	604.33193
301.362	586.3047
301.692	526.76937
302.022	528.89979
302.352	559.75581
302.682	571.44303
303.012	580.99861
303.342	604.33193
303.672	595.8511
304.002	560.81866
304.332	568.25651
304.662	582.05997
304.992	582.05997
305.321	592.66961
305.651	600.09208
305.98	564.00676
306.31	521.44192
306.639	546.99569
306.969	572.50506
307.298	555.50366
307.628	551.25029
307.957	560.81866
308.286	585.24363
308.615	579.93717
308.944	577.81408
309.273	584.18248
309.602	584.18248
309.931	611.74894
310.26	586.3047
310.589	556.56681
310.918	549.12314
311.247	569.31875
311.575	586.3047
311.904	571.44303
312.233	558.69289
312.561	553.37712
312.89	554.44043
313.218	597.97173
313.546	630.80567
313.875	564.00676
314.203	518.24449
314.531	569.31875
314.859	604.33193
315.188	574.62889
315.516	577.81408
315.844	571.44303
316.172	587.3657
316.5	584.18248
316.827	560.81866
317.155	602.21215
317.483	602.21215
317.811	561.88144
318.138	542.73986
318.466	573.56701
318.794	579.93717
319.121	550.18675
319.449	564.00676
319.776	570.38093
320.103	550.18675
320.431	567.19418
320.758	560.81866
321.085	552.31374
321.412	560.81866
321.739	568.25651
322.066	569.31875
322.393	572.50506
322.72	579.93717
323.047	573.56701
323.374	586.3047
323.701	573.56701
324.028	562.94414
324.354	553.37712
324.681	560.81866
325.008	575.69069
325.334	551.25029
325.661	556.56681
325.987	591.60898
326.314	583.12126
326.64	574.62889
326.966	576.75242
327.293	559.75581
327.619	576.75242
327.945	599.03194
328.271	594.79068
328.597	607.51107
328.923	602.21215
329.249	588.42663
329.575	593.73018
329.901	559.75581
330.227	550.18675
330.552	591.60898
330.878	609.63015
331.204	583.12126
331.529	564.00676
331.855	573.56701
332.18	586.3047
332.506	579.93717
332.831	559.75581
333.156	556.56681
333.482	584.18248
333.807	593.73018
334.132	583.12126
334.457	575.69069
334.782	549.12314
335.107	569.31875
335.432	590.54827
335.757	584.18248
336.082	601.15215
336.407	594.79068
336.732	569.31875
337.057	554.44043
337.381	569.31875
337.706	588.42663
338.031	570.38093
338.355	557.62989
338.68	559.75581
339.004	536.35378
339.329	558.69289
339.653	565.06931
339.977	551.25029
340.301	558.69289
340.626	580.99861
340.95	584.18248
341.274	550.18675
341.598	552.31374
341.922	575.69069
342.246	567.19418
342.57	580.99861
342.894	567.19418
343.218	528.89979
343.541	549.12314
343.865	541.6757
344.189	568.25651
344.512	594.79068
344.836	567.19418
345.159	548.05945
345.483	544.86793
345.806	548.05945
346.13	556.56681
346.453	560.81866
346.776	565.06931
347.099	576.75242
347.423	575.69069
347.746	574.62889
348.069	578.87566
348.392	564.00676
348.715	569.31875
349.038	579.93717
349.361	568.25651
349.683	592.66961
350.006	612.80824
350.329	589.48748
350.652	574.62889
350.974	582.05997
351.297	572.50506
351.619	584.18248
351.942	605.39171
352.264	571.44303
352.587	556.56681
352.909	562.94414
353.231	549.12314
353.554	564.00676
353.876	577.81408
354.198	570.38093
354.52	575.69069
354.842	553.37712
355.164	545.93185
355.486	573.56701
355.808	588.42663
356.13	579.93717
356.452	593.73018
356.773	597.97173
357.095	564.00676
357.417	556.56681
357.738	544.86793
358.06	556.56681
358.381	584.18248
358.703	579.93717
359.024	559.75581
359.346	538.48278
359.667	542.73986
359.988	555.50366
360.309	589.48748
360.631	610.68958
360.952	593.73018
361.273	586.3047
361.594	567.19418
361.915	569.31875
362.236	579.93717
362.557	585.24363
362.878	594.79068
363.198	573.56701
363.519	570.38093
363.84	590.54827
364.16	557.62989
364.481	559.75581
364.802	575.69069
365.122	570.38093
365.443	574.62889
365.763	577.81408
366.083	577.81408
366.404	556.56681
366.724	567.19418
367.044	589.48748
367.364	576.75242
367.685	567.19418
368.005	589.48748
368.325	574.62889
368.645	564.00676
368.965	590.54827
369.284	601.15215
369.604	574.62889
369.924	578.87566
370.244	590.54827
370.564	562.94414
370.883	573.56701
371.203	597.97173
371.522	603.27207
371.842	599.03194
372.161	569.31875
372.481	556.56681
372.8	548.05945
373.119	554.44043
373.439	567.19418
373.758	572.50506
374.077	586.3047
374.396	584.18248
374.715	607.51107
375.034	601.15215
375.353	600.09208
375.672	560.81866
375.991	531.0299
376.31	558.69289
376.629	543.80393
376.948	554.44043
377.266	570.38093
377.585	602.21215
377.904	599.03194
378.222	550.18675
378.541	539.54717
378.859	552.31374
379.178	588.42663
379.496	590.54827
379.814	577.81408
380.133	575.69069
380.451	589.48748
380.769	589.48748
381.087	546.99569
381.405	544.86793
381.723	548.05945
382.041	549.12314
382.359	550.18675
382.677	551.25029
382.995	584.18248
383.313	584.18248
383.631	561.88144
383.949	558.69289
384.266	574.62889
384.584	604.33193
384.901	585.24363
385.219	561.88144
385.537	576.75242
385.854	568.25651
386.171	580.99861
386.489	585.24363
386.806	589.48748
387.123	584.18248
387.441	580.99861
387.758	602.21215
388.075	603.27207
388.392	599.03194
388.709	571.44303
389.026	590.54827
389.343	583.12126
389.66	578.87566
389.977	607.51107
390.294	579.93717
390.61	565.06931
390.927	582.05997
391.244	593.73018
391.56	573.56701
391.877	548.05945
392.193	580.99861
392.51	610.68958
392.826	605.39171
393.143	601.15215
393.459	572.50506
393.775	559.75581
394.092	550.18675
394.408	534.22446
394.724	546.99569
395.04	556.56681
395.356	569.31875
395.672	587.3657
395.988	590.54827
396.304	580.99861
396.62	571.44303
396.936	590.54827
397.252	567.19418
397.567	555.50366
397.883	566.13178
398.199	555.50366
398.514	561.88144
398.83	578.87566
399.146	593.73018
399.461	578.87566
399.777	553.37712
400.092	565.06931
400.407	558.69289
400.723	573.56701
401.038	597.97173
401.353	573.56701
401.668	562.94414
401.983	572.50506
402.298	592.66961
402.613	562.94414
402.928	552.31374
403.243	576.75242
403.558	596.91145
403.873	594.79068
404.188	575.69069
404.503	574.62889
404.817	555.50366
405.132	561.88144
405.447	580.99861
405.761	612.80824
406.076	622.33876
406.39	572.50506
406.705	544.86793
407.019	556.56681
407.334	586.3047
407.648	592.66961
407.962	559.75581
408.276	545.93185
408.591	571.44303
408.905	576.75242
409.219	586.3047
409.533	586.3047
409.847	585.24363
410.161	580.99861
410.475	559.75581
410.789	567.19418
411.102	613.86746
411.416	628.68935
411.73	591.60898
412.044	569.31875
412.357	575.69069
412.671	578.87566
412.984	575.69069
413.298	578.87566
413.611	587.3657
413.925	604.33193
414.238	625.51436
414.552	605.39171
414.865	583.12126
415.178	582.05997
415.491	558.69289
415.804	586.3047
416.118	577.81408
416.431	543.80393
416.744	565.06931
417.057	552.31374
417.37	541.6757
417.683	549.12314
417.995	535.28916
418.308	533.15969
418.621	558.69289
418.934	570.38093
419.246	564.00676
419.559	572.50506
419.872	570.38093
420.184	576.75242
420.497	578.87566
420.809	603.27207
421.121	609.63015
421.434	579.93717
421.746	568.25651
422.058	554.44043
422.371	558.69289
422.683	548.05945
422.995	575.69069
423.307	590.54827
423.619	570.38093
423.931	560.81866
424.243	522.50757
424.555	537.41832
424.867	588.42663
425.179	610.68958
425.491	576.75242
425.802	565.06931
426.114	572.50506
426.426	573.56701
426.737	582.05997
427.049	589.48748
427.361	599.03194
427.672	586.3047
427.984	579.93717
428.295	592.66961
428.606	573.56701
428.918	574.62889
429.229	633.97964
429.54	601.15215
429.851	568.25651
430.163	585.24363
430.474	570.38093
430.785	569.31875
431.096	571.44303
431.407	573.56701
431.718	573.56701
432.029	590.54827
432.339	597.97173
432.65	576.75242
432.961	582.05997
433.272	599.03194
433.582	583.12126
433.893	554.44043
434.204	571.44303
434.514	614.92662
434.825	601.15215
435.135	584.18248
435.446	589.48748
435.756	601.15215
436.066	596.91145
436.377	590.54827
436.687	574.62889
436.997	555.50366
437.307	582.05997
437.617	588.42663
437.927	596.91145
438.237	582.05997
438.547	552.31374
438.857	576.75242
439.167	594.79068
439.477	572.50506
439.787	579.93717
440.097	568.25651
440.407	540.61148
440.716	559.75581
441.026	557.62989
441.336	543.80393
441.645	579.93717
441.955	575.69069
442.264	573.56701
442.574	611.74894
442.883	586.3047
443.192	552.31374
443.502	569.31875
443.811	608.57064
444.12	621.28009
444.429	597.97173
444.739	575.69069
445.048	606.45143
445.357	593.73018
445.666	554.44043
445.975	567.19418
446.284	569.31875
446.593	552.31374
446.901	546.99569
447.21	564.00676
447.519	545.93185
447.828	555.50366
448.136	595.8511
448.445	582.05997
448.754	570.38093
449.062	574.62889
449.371	569.31875
449.679	569.31875
449.988	556.56681
450.296	545.93185
450.605	542.73986
450.913	572.50506
451.221	602.21215
451.529	585.24363
451.838	583.12126
452.146	567.19418
452.454	559.75581
452.762	601.15215
453.07	588.42663
453.378	534.22446
453.686	551.25029
453.994	604.33193
454.302	607.51107
454.609	573.56701
454.917	531.0299
455.225	534.22446
455.533	574.62889
455.84	572.50506
456.148	576.75242
456.455	602.21215
456.763	585.24363
457.07	578.87566
457.378	574.62889
457.685	561.88144
457.993	575.69069
458.3	576.75242
458.607	562.94414
458.915	556.56681
459.222	566.13178
459.529	568.25651
459.836	569.31875
460.143	578.87566
460.45	560.81866
460.757	520.37619
461.064	535.28916
461.371	568.25651
461.678	599.03194
461.985	593.73018
462.292	583.12126
462.598	565.06931
462.905	572.50506
463.212	613.86746
463.518	572.50506
463.825	551.25029
464.131	567.19418
464.438	580.99861
464.744	588.42663
465.051	565.06931
465.357	570.38093
465.664	572.50506
465.97	531.0299
466.276	540.61148
466.582	573.56701
466.889	570.38093
467.195	596.91145
467.501	590.54827
467.807	571.44303
468.113	574.62889
468.419	539.54717
468.725	560.81866
469.031	589.48748
469.337	592.66961
469.642	595.8511
469.948	575.69069
470.254	591.60898
470.56	615.9857
470.865	592.66961
471.171	572.50506
471.477	577.81408
471.782	565.06931
472.088	555.50366
472.393	567.19418
472.698	568.25651
473.004	565.06931
473.309	572.50506
473.614	585.24363
473.92	579.93717
474.225	554.44043
474.53	553.37712
474.835	580.99861
475.14	589.48748
475.445	586.3047
475.75	577.81408
476.055	574.62889
476.36	591.60898
476.665	603.27207
476.97	579.93717
477.275	576.75242
477.58	577.81408
477.885	578.87566
478.189	550.18675
478.494	540.61148
478.799	560.81866
479.103	560.81866
479.408	555.50366
479.712	542.73986
480.017	533.15969
480.321	556.56681
480.625	561.88144
480.93	559.75581
481.234	590.54827
481.538	594.79068
481.843	590.54827
482.147	579.93717
482.451	592.66961
482.755	592.66961
483.059	575.69069
483.363	559.75581
483.667	560.81866
483.971	570.38093
484.275	578.87566
484.579	560.81866
484.883	543.80393
485.187	570.38093
485.49	572.50506
485.794	545.93185
486.098	552.31374
486.401	588.42663
486.705	606.45143
487.009	590.54827
487.312	588.42663
487.616	595.8511
487.919	582.05997
488.222	549.12314
488.526	523.57314
488.829	562.94414
489.132	576.75242
489.436	556.56681
489.739	567.19418
490.042	576.75242
490.345	591.60898
490.648	589.48748
490.951	559.75581
491.254	562.94414
491.557	578.87566
491.86	590.54827
492.163	595.8511
492.466	583.12126
492.769	566.13178
493.072	553.37712
493.375	566.13178
493.677	590.54827
493.98	594.79068
494.283	570.38093
494.585	564.00676
494.888	573.56701
495.19	560.81866
495.493	560.81866
495.795	570.38093
496.098	612.80824
496.4	619.16254
496.702	572.50506
497.005	571.44303
497.307	623.39736
497.609	599.03194
497.911	561.88144
498.213	582.05997
498.515	584.18248
498.818	583.12126
499.12	554.44043
499.422	542.73986
499.723	562.94414
500.025	593.73018
500.327	589.48748
500.629	580.99861
500.931	576.75242
501.233	575.69069
501.534	579.93717
501.836	573.56701
502.138	565.06931
502.439	562.94414
502.741	553.37712
503.042	552.31374
503.344	575.69069
503.645	594.79068
503.947	594.79068
504.248	604.33193
504.55	608.57064
504.851	601.15215
505.152	592.66961
505.453	558.69289
505.755	564.00676
506.056	585.24363
506.357	583.12126
506.658	555.50366
506.959	561.88144
507.26	579.93717
507.561	593.73018
507.862	587.3657
508.163	574.62889
508.464	572.50506
508.764	560.81866
509.065	551.25029
509.366	585.24363
509.667	596.91145
509.967	558.69289
510.268	550.18675
510.569	554.44043
510.869	568.25651
511.17	558.69289
511.47	567.19418
511.771	550.18675
512.071	545.93185
512.371	594.79068
512.672	586.3047
512.972	561.88144
513.272	575.69069
513.573	558.69289
513.873	559.75581
514.173	583.12126
514.473	549.12314
514.773	565.06931
515.073	614.92662
515.373	594.79068
515.673	566.13178
515.973	558.69289
516.273	557.62989
516.573	577.81408
516.873	577.81408
517.172	553.37712
517.472	565.06931
517.772	586.3047
518.072	576.75242
518.371	577.81408
518.671	583.12126
518.97	582.05997
519.27	580.99861
519.569	586.3047
519.869	608.57064
520.168	588.42663
520.468	565.06931
520.767	567.19418
521.066	561.88144
521.366	584.18248
521.665	572.50506
521.964	559.75581
522.263	571.44303
522.562	571.44303
522.861	540.61148
523.161	513.98012
523.46	545.93185
523.759	577.81408
524.057	557.62989
524.356	550.18675
524.655	578.87566
524.954	569.31875
525.253	575.69069
525.552	597.97173
525.85	589.48748
526.149	593.73018
526.448	573.56701
526.746	537.41832
527.045	577.81408
527.344	624.4559
527.642	629.74755
527.941	605.39171
528.239	590.54827
528.537	596.91145
528.836	586.3047
529.134	582.05997
529.432	556.56681
529.731	583.12126
530.029	590.54827
530.327	562.94414
530.625	568.25651
530.923	566.13178
531.221	565.06931
531.52	562.94414
531.818	584.18248
532.116	589.48748
532.413	546.99569
532.711	539.54717
533.009	582.05997
533.307	593.73018
533.605	583.12126
533.903	584.18248
534.2	574.62889
534.498	576.75242
534.796	549.12314
535.093	537.41832
535.391	593.73018
535.689	585.24363
535.986	538.48278
536.284	564.00676
536.581	590.54827
536.878	597.97173
537.176	585.24363
537.473	565.06931
537.77	580.99861
538.068	595.8511
538.365	573.56701
538.662	574.62889
538.959	578.87566
539.256	555.50366
539.554	584.18248
