Data from sample_5_A_6Oclock_ST026791__14__23123.txt Node

Date: Tue Aug 19 16:39:39 AEST 2025
User: mathewyoussef
Spectrometer: ST02679
Trigger mode: 0
Integration Time (sec): 6.653700E-1
Scans to average: 1
Nonlinearity correction enabled: true
Boxcar width: 0
Storing dark spectrum: false
XAxis mode: Wavelengths
Number of Pixels in Spectrum: 1516
>>>>>Begin Spectral Data<<<<<
187.304	571.44303
187.653	628.68935
188.002	643.49793
188.351	593.73018
188.7	582.05997
189.048	565.06931
189.397	604.33193
189.746	613.86746
190.094	614.92662
190.443	609.63015
190.791	587.3657
191.14	595.8511
191.488	590.54827
191.837	617.04472
192.185	627.63109
192.533	589.48748
192.881	591.60898
193.229	620.22135
193.577	635.0375
193.925	609.63015
194.273	582.05997
194.621	620.22135
194.969	641.38322
195.317	618.10366
195.664	619.16254
196.012	609.63015
196.359	593.73018
196.707	611.74894
197.054	611.74894
197.402	604.33193
197.749	607.51107
198.096	617.04472
198.443	602.21215
198.791	606.45143
199.138	615.9857
199.485	612.80824
199.832	611.74894
200.179	606.45143
200.525	575.69069
200.872	580.99861
201.219	625.51436
201.566	653.01083
201.912	651.95411
202.259	640.32577
202.605	624.4559
202.952	619.16254
203.298	621.28009
203.644	640.32577
203.991	641.38322
204.337	593.73018
204.683	562.94414
205.029	589.48748
205.375	604.33193
205.721	620.22135
206.067	681.51806
206.413	663.57452
206.759	604.33193
207.104	585.24363
207.45	608.57064
207.796	649.84046
208.141	656.18062
208.487	611.74894
208.832	596.91145
209.177	592.66961
209.523	574.62889
209.868	580.99861
210.213	575.69069
210.558	570.38093
210.903	597.97173
211.248	605.39171
211.593	599.03194
211.938	601.15215
212.283	632.92172
212.628	613.86746
212.973	584.18248
213.317	590.54827
213.662	597.97173
214.007	609.63015
214.351	572.50506
214.696	576.75242
215.04	588.42663
215.384	580.99861
215.729	604.33193
216.073	609.63015
216.417	582.05997
216.761	580.99861
217.105	613.86746
217.449	637.15301
217.793	610.68958
218.137	602.21215
218.481	609.63015
218.824	617.04472
219.168	596.91145
219.512	565.06931
219.855	601.15215
220.199	603.27207
220.542	575.69069
220.886	603.27207
221.229	631.86373
221.572	611.74894
221.916	596.91145
222.259	614.92662
222.602	612.80824
222.945	596.91145
223.288	631.86373
223.631	628.68935
223.974	600.09208
224.317	599.03194
224.659	615.9857
225.002	608.57064
225.345	572.50506
225.687	583.12126
226.03	629.74755
226.372	633.97964
226.715	624.4559
227.057	615.9857
227.4	596.91145
227.742	619.16254
228.084	617.04472
228.426	590.54827
228.768	620.22135
229.11	638.21066
229.452	603.27207
229.794	623.39736
230.136	619.16254
230.478	599.03194
230.82	604.33193
231.161	575.69069
231.503	631.86373
231.845	643.49793
232.186	670.96526
232.528	684.68268
232.869	602.21215
233.21	605.39171
233.552	631.86373
233.893	619.16254
234.234	580.99861
234.575	584.18248
234.916	627.63109
235.257	645.61237
235.598	646.66949
235.939	621.28009
236.28	579.93717
236.621	574.62889
236.961	617.04472
237.302	642.44061
237.643	601.15215
237.983	605.39171
238.324	605.39171
238.664	623.39736
239.005	625.51436
239.345	567.19418
239.685	591.60898
240.025	655.12409
240.366	613.86746
240.706	590.54827
241.046	619.16254
241.386	578.87566
241.726	565.06931
242.066	564.00676
242.405	578.87566
242.745	622.33876
243.085	605.39171
243.425	567.19418
243.764	571.44303
244.104	681.51806
244.443	726.82508
244.783	650.89731
245.122	621.28009
245.461	607.51107
245.801	611.74894
246.14	610.68958
246.479	589.48748
246.818	578.87566
247.157	623.39736
247.496	641.38322
247.835	588.42663
248.174	576.75242
248.513	595.8511
248.852	645.61237
249.19	638.21066
249.529	599.03194
249.868	620.22135
250.206	626.57276
250.545	617.04472
250.883	608.57064
251.221	582.05997
251.56	569.31875
251.898	587.3657
252.236	608.57064
252.574	593.73018
252.912	566.13178
253.25	567.19418
253.588	587.3657
253.926	635.0375
254.264	639.26825
254.602	605.39171
254.94	586.3047
255.278	618.10366
255.615	613.86746
255.953	595.8511
256.29	640.32577
256.628	605.39171
256.965	580.99861
257.303	608.57064
257.64	640.32577
257.977	661.4623
258.314	641.38322
258.652	608.57064
258.989	591.60898
259.326	605.39171
259.663	627.63109
260	637.15301
260.337	620.22135
260.673	576.75242
261.01	557.62989
261.347	584.18248
261.684	592.66961
262.02	636.09528
262.357	655.12409
262.693	604.33193
263.03	604.33193
263.366	625.51436
263.702	621.28009
264.039	615.9857
264.375	600.09208
264.711	600.09208
265.047	592.66961
265.383	595.8511
265.719	595.8511
266.055	593.73018
266.391	647.72654
266.727	644.55518
267.063	602.21215
267.399	602.21215
267.734	600.09208
268.07	610.68958
268.405	612.80824
268.741	632.92172
269.076	637.15301
269.412	614.92662
269.747	604.33193
270.082	593.73018
270.418	623.39736
270.753	650.89731
271.088	626.57276
271.423	603.27207
271.758	602.21215
272.093	600.09208
272.428	585.24363
272.763	582.05997
273.098	587.3657
273.433	564.00676
273.767	611.74894
274.102	646.66949
274.436	594.79068
274.771	593.73018
275.106	610.68958
275.44	658.29348
275.774	649.84046
276.109	574.62889
276.443	582.05997
276.777	603.27207
277.111	589.48748
277.445	600.09208
277.78	637.15301
278.114	633.97964
278.447	585.24363
278.781	575.69069
279.115	604.33193
279.449	632.92172
279.783	635.0375
280.116	603.27207
280.45	585.24363
280.784	589.48748
281.117	631.86373
281.451	609.63015
281.784	663.57452
282.117	691.01024
282.451	622.33876
282.784	590.54827
283.117	580.99861
283.45	606.45143
283.783	591.60898
284.116	596.91145
284.449	610.68958
284.782	633.97964
285.115	656.18062
285.448	650.89731
285.781	635.0375
286.114	586.3047
286.446	560.81866
286.779	638.21066
287.111	646.66949
287.444	617.04472
287.776	647.72654
288.109	633.97964
288.441	588.42663
288.773	580.99861
289.106	649.84046
289.438	635.0375
289.77	599.03194
290.102	627.63109
290.434	599.03194
290.766	631.86373
291.098	663.57452
291.43	635.0375
291.762	643.49793
292.094	637.15301
292.425	608.57064
292.757	605.39171
293.089	629.74755
293.42	632.92172
293.752	597.97173
294.083	615.9857
294.414	664.63053
294.746	657.23708
295.077	645.61237
295.408	696.2815
295.74	751.01432
296.071	718.40427
296.402	662.51844
296.733	684.68268
297.064	699.44353
297.395	655.12409
297.726	663.57452
298.056	732.0862
298.387	732.0862
298.718	739.44933
299.049	815.02749
299.379	772.02426
299.71	740.50098
300.04	743.65557
300.371	733.13825
300.701	746.80966
301.031	784.61975
301.362	810.8359
301.692	805.59527
302.022	793.01248
302.352	794.06133
302.682	824.4556
303.012	793.01248
303.342	795.11013
303.672	838.06684
304.002	878.85163
304.332	868.40083
304.662	843.29972
304.992	860.03683
305.321	855.8537
305.651	832.83274
305.98	885.11991
306.31	910.1768
306.639	848.53139
306.969	862.12812
307.298	870.49136
307.628	878.85163
307.957	899.73954
308.286	938.33576
308.615	990.40252
308.944	1046.52664
309.273	1022.63503
309.602	974.79297
309.931	1028.86946
310.26	1038.21866
310.589	995.60376
310.918	1022.63503
311.247	1131.55815
311.575	1158.47458
311.904	1120.16418
312.233	1170.89072
312.561	1127.41533
312.89	1080.77346
313.218	1233.94285
313.546	1314.42413
313.875	1222.58036
314.203	1127.41533
314.531	1149.15967
314.859	1207.08079
315.188	1166.75248
315.516	1176.06288
315.844	1208.11429
316.172	1258.72265
316.5	1329.8843
316.827	1326.79268
317.155	1343.2789
317.483	1318.54735
317.811	1275.2343
318.138	1262.85117
318.466	1302.05217
318.794	1305.14548
319.121	1331.94526
319.449	1365.938
319.776	1332.9757
320.103	1336.0669
320.431	1374.17502
320.758	1410.19582
321.085	1397.84875
321.412	1424.59696
321.739	1464.69365
322.066	1449.2754
322.393	1379.32245
322.72	1382.41065
323.047	1440.02233
323.374	1550.95776
323.701	1483.18981
324.028	1437.96588
324.354	1526.32397
324.681	1456.47113
325.008	1512.97638
325.334	1549.93156
325.661	1520.16392
325.987	1584.81288
326.314	1596.09383
326.64	1573.52991
326.966	1590.96637
327.293	1639.14826
327.619	1627.87485
327.945	1632.99937
328.271	1665.78689
328.597	1627.87485
328.923	1637.09869
329.249	1604.29689
329.575	1585.83851
329.901	1609.42326
330.227	1634.02422
330.552	1702.65392
330.878	1704.70152
331.204	1698.55855
331.529	1724.15069
331.855	1793.71537
332.18	1838.69325
332.506	1733.36161
332.831	1670.90849
333.156	1731.31484
333.482	1757.91828
333.807	1782.46672
334.132	1824.38498
334.457	1819.27424
334.782	1820.29642
335.107	1762.01026
335.432	1722.10366
335.757	1726.19767
336.082	1771.21637
336.407	1804.96234
336.732	1809.05173
337.057	1857.08569
337.381	1832.56146
337.706	1790.64772
338.031	1832.56146
338.355	1813.1409
338.68	1839.71517
339.004	1891.81518
339.329	1914.2791
339.653	1911.21621
339.977	1860.15068
340.301	1866.28029
340.626	1857.08569
340.95	1892.83641
341.274	1911.21621
341.598	1866.28029
341.922	1939.79864
342.246	2045.87458
342.57	2070.33443
342.894	1968.37099
343.218	1946.94267
343.541	2079.50504
343.865	2059.12455
344.189	1990.81371
344.512	2005.09225
344.836	2016.30939
345.159	1996.93339
345.483	2005.09225
345.806	1959.18811
346.13	2021.40758
346.453	2114.14055
346.776	2038.73911
347.099	2071.35344
347.423	2189.47478
347.746	2125.34312
348.069	2102.9365
348.392	2177.26296
348.715	2098.86193
349.038	2067.27734
349.361	2096.82457
349.683	2108.02943
350.006	2127.37979
350.329	2123.3064
350.652	2163.01362
350.974	2192.52746
351.297	2159.95988
351.619	2235.25345
351.942	2300.31831
352.264	2230.16815
352.587	2229.15105
352.909	2271.85859
353.231	2252.54118
353.554	2267.79214
353.876	2253.558
354.198	2342.98987
354.52	2391.73077
354.842	2321.6568
355.164	2414.06082
355.486	2397.82138
355.808	2321.6568
356.13	2326.7366
356.452	2394.77613
356.773	2443.48666
357.095	2322.67278
357.417	2278.97442
357.738	2263.72548
358.06	2294.22061
358.381	2293.20428
358.703	2266.77549
359.024	2400.86652
359.346	2370.41013
359.667	2321.6568
359.988	2337.91106
360.309	2341.97414
360.631	2405.9415
360.952	2466.81692
361.273	2424.20885
361.594	2401.88154
361.915	2469.85951
362.236	2462.75996
362.557	2458.7028
362.878	2494.19613
363.198	2459.71711
363.519	2452.61669
363.84	2491.15445
364.16	2466.81692
364.481	2492.16836
364.802	2461.74569
365.122	2454.64544
365.443	2517.51189
365.763	2504.33424
366.083	2494.19613
366.404	2420.14978
366.724	2461.74569
367.044	2546.90042
367.364	2504.33424
367.685	2463.77422
368.005	2417.10536
368.325	2412.03106
368.645	2425.22358
368.965	2446.53012
369.284	2453.63107
369.604	2499.26534
369.924	2537.78099
370.244	2545.8872
370.564	2602.60768
370.883	2648.15718
371.203	2614.75679
371.522	2607.67003
371.842	2746.25092
372.161	2772.52273
372.481	2671.42779
372.8	2609.69489
373.119	2667.38123
373.439	2771.51244
373.758	2731.08997
374.077	2644.1094
374.396	2665.35787
374.715	2643.09743
375.034	2568.17506
375.353	2534.74095
375.672	2438.41399
375.991	2283.04034
376.31	2211.85854
376.629	2231.18523
376.948	2275.92485
377.266	2373.45627
377.585	2471.88784
377.904	2570.20092
378.222	2642.08544
378.541	2685.5891
378.859	2737.15471
379.178	2762.41926
379.496	2768.4815
379.814	2732.1008
380.133	2693.68011
380.451	2729.06829
380.769	2675.47415
381.087	2576.2782
381.405	2571.21383
381.723	2623.8674
382.041	2689.63471
382.359	2715.92601
382.677	2690.64608
382.995	2743.21897
383.313	2776.56373
383.631	2682.55475
383.949	2704.80387
384.266	2719.97003
384.584	2683.56622
384.901	2748.27215
385.219	2836.1433
385.537	2813.93274
385.854	2769.49183
386.171	2772.52273
386.489	2811.91327
386.806	2776.56373
387.123	2792.72559
387.441	2892.64919
387.758	2927.94326
388.075	2881.55324
388.392	2780.60452
388.709	2763.42967
389.026	2724.01383
389.343	2705.81504
389.66	2791.71557
389.977	2848.25535
390.294	2834.12443
390.61	2842.19957
390.927	2881.55324
391.244	2904.75194
391.56	2955.1584
391.877	2838.16211
392.193	2776.56373
392.51	2936.00807
392.826	2893.65783
393.143	2830.08653
393.459	2816.96184
393.775	2786.6653
394.092	2779.59434
394.408	2790.70555
394.724	2891.64054
395.04	2966.24311
395.356	3012.57879
395.672	3001.50125
395.988	3045.80105
396.304	3065.92818
396.62	2994.45101
396.936	3038.75521
397.252	3052.8462
397.567	3112.19872
397.883	3195.60932
398.199	3134.3173
398.514	3052.8462
398.83	3093.09067
399.146	3116.2208
399.461	3052.8462
399.777	3029.69523
400.092	2989.4147
400.407	2962.2125
400.723	2977.32611
401.038	2906.76887
401.353	2856.32894
401.668	2896.68366
401.983	2859.35632
402.298	2894.66645
402.613	2907.77731
402.928	2809.89375
403.243	2763.42967
403.558	2865.41069
403.873	2961.20482
404.188	2873.48241
404.503	2795.75555
404.817	2819.99082
405.132	2876.50907
405.447	2861.3745
405.761	2916.85268
406.076	3027.68175
406.39	2969.26591
406.705	2924.91873
407.019	3058.88434
407.334	3066.93438
407.648	3008.55079
407.962	2977.32611
408.276	2991.42926
408.591	2956.16617
408.905	2959.1894
409.219	3155.42395
409.533	3098.11961
409.847	3031.70866
410.161	3035.73534
410.475	2977.32611
410.789	3030.70195
411.102	3040.76838
411.416	3080.01374
411.73	3175.51955
412.044	3165.47247
412.357	3027.68175
412.671	2938.02414
412.984	2982.36327
413.298	2994.45101
413.611	3004.52257
413.925	3050.83337
414.238	3046.80755
414.552	3053.85259
414.865	3003.51547
415.178	3005.52964
415.491	2965.23548
415.804	2908.78574
416.118	2931.97578
416.431	2872.47349
416.744	2849.26459
417.057	2875.5002
417.37	2892.64919
417.683	2888.61449
417.995	2953.14282
418.308	2936.00807
418.621	2941.04813
418.934	2886.59706
419.246	2838.16211
419.559	3006.53671
419.872	3090.07314
420.184	3118.23176
420.497	3121.24808
420.809	3134.3173
421.121	3068.94675
421.434	2989.4147
421.746	3032.71535
422.058	3067.94057
422.371	3007.54376
422.683	2963.22017
422.995	2920.88582
423.307	2926.9351
423.619	2964.22783
423.931	2882.56203
424.243	2858.34721
424.555	2875.5002
424.867	2937.01611
425.179	2985.38539
425.491	2909.79416
425.802	2829.07702
426.114	2785.6552
426.426	2761.40884
426.737	2802.82498
427.049	2936.00807
427.361	2977.32611
427.672	2876.50907
427.984	2792.72559
428.295	2806.86436
428.606	2767.47116
428.918	2849.26459
429.229	3055.86533
429.54	2944.07199
429.851	2744.22964
430.163	2738.16546
430.474	2774.54326
430.785	2805.85453
431.096	2770.50214
431.407	2764.44006
431.718	2828.0675
432.029	2783.63497
432.339	2757.36703
432.65	2815.95216
432.961	2767.47116
433.272	2737.15471
433.582	2830.08653
433.893	2807.87417
434.204	2766.46081
434.514	2815.95216
434.825	2750.29333
435.135	2709.85959
435.446	2833.11497
435.756	2883.57081
436.066	2850.27383
436.377	2921.89407
436.687	2944.07199
436.997	2835.13387
437.307	2782.62483
437.617	2815.95216
437.927	2787.67538
438.237	2801.8151
438.547	2842.19957
438.857	2817.97152
439.167	2888.61449
439.477	2948.10361
439.787	2976.31863
440.097	2920.88582
440.407	2871.46456
440.716	2844.21822
441.026	2853.30145
441.336	2939.03215
441.645	2907.77731
441.955	2859.35632
442.264	2896.68366
442.574	3038.75521
442.883	3011.57181
443.192	2910.80256
443.502	3008.55079
443.811	3018.62036
444.12	2925.92692
444.429	2780.60452
444.739	2735.13319
445.048	2840.18087
445.357	2873.48241
445.666	2834.12443
445.975	2861.3745
446.284	2832.10551
446.593	2803.83485
446.901	2753.32499
447.21	2753.32499
447.519	2727.04655
447.828	2766.46081
448.136	2869.44666
448.445	2880.54444
448.754	2879.53562
449.062	2850.27383
449.371	2870.45562
449.679	2902.73495
449.988	2961.20482
450.296	3009.55781
450.605	3019.62723
450.913	3167.48201
451.221	3432.22508
451.529	3467.24652
451.838	3346.09568
452.146	3262.86741
452.454	3206.6562
452.762	3327.05238
453.07	3297.97603
453.378	3108.17641
453.686	3075.98958
453.994	3172.50558
454.302	3129.29097
454.609	2952.135
454.917	3004.52257
455.225	3007.54376
455.533	2903.74345
455.84	2909.79416
456.148	2870.45562
456.455	2802.82498
456.763	2858.34721
457.07	3001.50125
457.378	3055.86533
457.685	3020.6341
457.993	2948.10361
458.3	2919.87755
458.607	3019.62723
458.915	3024.66141
459.222	3133.31207
459.529	3196.61365
459.836	3139.34328
460.143	3075.98958
460.45	2973.29612
460.757	2962.2125
461.064	2968.25832
461.371	2992.43653
461.678	3024.66141
461.985	3106.16516
462.292	3179.53797
462.598	3254.84005
462.905	3390.17551
463.212	3476.24912
463.518	3524.24285
463.825	3502.24993
464.131	3693.94995
464.438	3801.54786
464.744	3624.1214
465.051	3575.19916
465.357	3606.15403
465.664	3583.18885
465.97	3486.25061
466.276	3439.23081
466.582	3386.16943
466.889	3357.11831
467.195	3419.21252
467.501	3545.22947
467.807	3812.49766
468.113	4086.69958
468.419	4229.37235
468.725	4273.90684
469.031	4398.48287
469.337	4581.09706
469.642	4518.9463
469.948	4382.67319
470.254	4388.60213
470.56	4208.58151
470.865	3879.15559
471.171	3787.60929
471.477	3759.72388
471.782	3674.00615
472.088	3627.11551
472.393	3755.73935
472.698	3658.04696
473.004	3372.1463
473.309	3465.24578
473.614	3616.13648
473.92	3731.82737
474.225	3742.78804
474.53	3676.00078
474.835	3629.1115
475.14	3627.11551
475.445	3721.86163
475.75	3572.20278
476.055	3452.23954
476.36	3379.15823
476.665	3115.2153
476.97	3168.48675
477.275	3254.84005
477.58	3237.7788
477.885	3261.86404
478.189	3104.15386
478.494	3076.99565
478.799	3145.37396
479.103	3132.30681
479.408	3052.8462
479.712	3056.87168
480.017	3170.49619
480.321	3228.74466
480.625	3219.70933
480.93	3234.76755
481.234	3354.11232
481.538	3520.24467
481.843	3657.04939
482.147	3789.60068
482.451	3846.33184
482.755	3836.38228
483.059	3859.2642
483.363	3897.05315
483.667	4002.3612
483.971	4058.92779
484.275	3957.6733
484.579	4019.23635
484.883	4181.84274
485.187	4111.48745
485.49	4003.35396
485.794	3992.43286
486.098	3983.49624
486.401	3915.94023
486.705	3870.20514
487.009	3863.24292
487.312	3903.01802
487.616	3997.39719
487.919	3892.08205
488.222	3857.27476
488.526	3911.96441
488.829	3901.02978
489.132	3930.84762
489.436	3887.11061
489.739	3883.13321
490.042	3890.09351
490.345	3958.66666
490.648	3992.43286
490.951	3894.07053
491.254	3969.5927
491.557	4081.74106
491.86	4055.95164
492.163	4135.27645
492.466	4225.41259
492.769	4394.5307
493.072	4510.06463
493.375	4554.46545
493.677	4614.624
493.98	4596.87569
494.283	4522.89347
494.585	4429.10654
494.888	4395.51876
495.19	4344.12572
495.493	4374.76734
495.795	4271.92802
496.098	4190.75663
496.4	4284.78952
496.702	4127.34758
497.005	4074.79861
497.307	4240.26072
497.609	4100.58175
497.911	4022.21393
498.213	4029.16115
498.515	3978.53099
498.818	4051.98328
499.12	4153.11353
499.422	4121.4004
499.723	4110.49608
500.025	4213.53218
500.327	4115.45278
500.629	4099.59025
500.931	4161.03985
501.233	4073.80678
501.534	4104.54764
501.836	4135.27645
502.138	4116.44408
502.439	4202.64031
502.741	4213.53218
503.042	4259.06461
503.344	4272.91744
503.645	4317.42937
503.947	4295.67082
504.248	4261.04372
504.55	4347.09149
504.851	4409.35047
505.152	4410.33837
505.453	4312.48472
505.755	4342.14849
506.056	4338.19389
506.357	4277.86434
506.658	4265.00181
506.959	4285.77878
507.26	4349.06862
507.561	4330.28417
507.862	4267.97026
508.163	4265.00181
508.464	4283.80024
508.764	4383.66137
509.065	4362.90729
509.366	4353.02274
509.667	4425.15566
509.967	4290.72494
510.268	4192.73736
510.569	4358.9536
510.869	4375.75561
511.17	4203.63054
511.47	4238.28112
511.771	4241.25051
512.071	4329.2954
512.371	4343.13711
512.672	4239.27093
512.972	4272.91744
513.272	4308.5288
513.573	4295.67082
513.873	4340.17121
514.173	4321.38489
514.473	4259.06461
514.773	4356.97669
515.073	4310.50678
515.373	4266.98078
515.673	4319.40715
515.973	4279.84302
516.273	4346.10291
516.573	4395.51876
516.873	4263.02279
517.172	4184.81414
517.472	4233.33192
517.772	4257.08545
518.072	4225.41259
518.371	4327.31784
518.671	4396.5068
518.97	4352.03423
519.27	4359.94204
519.569	4322.37374
519.869	4324.35141
520.168	4355.98822
520.468	4292.70333
520.767	4293.6925
521.066	4250.15802
521.366	4260.05417
521.665	4336.21652
521.964	4222.44265
522.263	4162.03059
522.562	4272.91744
522.861	4284.78952
523.161	4260.05417
523.46	4229.37235
523.759	4193.72771
524.057	4228.38243
524.356	4281.82165
524.655	4260.05417
524.954	4225.41259
525.253	4263.02279
525.552	4333.25039
525.85	4266.98078
526.149	4201.65007
526.448	4247.18896
526.746	4243.23004
527.045	4236.30148
527.344	4280.83234
527.642	4401.44688
527.941	4414.28987
528.239	4316.44046
528.537	4312.48472
