Data from sample_5_A_6Oclock_ST026791__102__23211.txt Node

Date: Tue Aug 19 16:41:38 AEST 2025
User: mathewyoussef
Spectrometer: ST02679
Trigger mode: 0
Integration Time (sec): 6.653700E-1
Scans to average: 1
Nonlinearity correction enabled: true
Boxcar width: 0
Storing dark spectrum: false
XAxis mode: Wavelengths
Number of Pixels in Spectrum: 1516
>>>>>Begin Spectral Data<<<<<
187.304	619.16254
187.653	629.74755
188.002	592.66961
188.351	567.19418
188.7	600.09208
189.048	627.63109
189.397	646.66949
189.746	642.44061
190.094	593.73018
190.443	570.38093
190.791	573.56701
191.14	603.27207
191.488	619.16254
191.837	597.97173
192.185	586.3047
192.533	582.05997
192.881	584.18248
193.229	586.3047
193.577	608.57064
193.925	604.33193
194.273	587.3657
194.621	615.9857
194.969	622.33876
195.317	569.31875
195.664	595.8511
196.012	611.74894
196.359	588.42663
196.707	608.57064
197.054	606.45143
197.402	608.57064
197.749	591.60898
198.096	580.99861
198.443	578.87566
198.791	575.69069
199.138	587.3657
199.485	565.06931
199.832	566.13178
200.179	587.3657
200.525	565.06931
200.872	583.12126
201.219	597.97173
201.566	591.60898
201.912	599.03194
202.259	592.66961
202.605	590.54827
202.952	597.97173
203.298	609.63015
203.644	636.09528
203.991	611.74894
204.337	567.19418
204.683	596.91145
205.029	615.9857
205.375	570.38093
205.721	589.48748
206.067	627.63109
206.413	622.33876
206.759	600.09208
207.104	606.45143
207.45	602.21215
207.796	597.97173
208.141	615.9857
208.487	613.86746
208.832	635.0375
209.177	625.51436
209.523	622.33876
209.868	593.73018
210.213	568.25651
210.558	591.60898
210.903	593.73018
211.248	596.91145
211.593	596.91145
211.938	611.74894
212.283	640.32577
212.628	612.80824
212.973	592.66961
213.317	611.74894
213.662	603.27207
214.007	612.80824
214.351	619.16254
214.696	605.39171
215.04	603.27207
215.384	604.33193
215.729	612.80824
216.073	618.10366
216.417	617.04472
216.761	613.86746
217.105	620.22135
217.449	609.63015
217.793	594.79068
218.137	597.97173
218.481	621.28009
218.824	665.68648
219.168	630.80567
219.512	591.60898
219.855	613.86746
220.199	613.86746
220.542	585.24363
220.886	586.3047
221.229	623.39736
221.572	623.39736
221.916	591.60898
222.259	588.42663
222.602	592.66961
222.945	594.79068
223.288	605.39171
223.631	593.73018
223.974	587.3657
224.317	620.22135
224.659	631.86373
225.002	602.21215
225.345	592.66961
225.687	611.74894
226.03	649.84046
226.372	609.63015
226.715	588.42663
227.057	594.79068
227.4	590.54827
227.742	599.03194
228.084	584.18248
228.426	604.33193
228.768	621.28009
229.11	621.28009
229.452	599.03194
229.794	586.3047
230.136	571.44303
230.478	559.75581
230.82	590.54827
231.161	609.63015
231.503	661.4623
231.845	663.57452
232.186	649.84046
232.528	654.06749
232.869	592.66961
233.21	579.93717
233.552	586.3047
233.893	594.79068
234.234	596.91145
234.575	601.15215
234.916	620.22135
235.257	621.28009
235.598	632.92172
235.939	638.21066
236.28	596.91145
236.621	591.60898
236.961	630.80567
237.302	633.97964
237.643	601.15215
237.983	609.63015
238.324	618.10366
238.664	653.01083
239.005	656.18062
239.345	599.03194
239.685	604.33193
240.025	618.10366
240.366	613.86746
240.706	613.86746
241.046	622.33876
241.386	577.81408
241.726	545.93185
242.066	590.54827
242.405	610.68958
242.745	625.51436
243.085	628.68935
243.425	610.68958
243.764	639.26825
244.104	679.40801
244.443	663.57452
244.783	609.63015
245.122	576.75242
245.461	586.3047
245.801	604.33193
246.14	612.80824
246.479	610.68958
246.818	603.27207
247.157	609.63015
247.496	605.39171
247.835	597.97173
248.174	605.39171
248.513	608.57064
248.852	666.74236
249.19	680.46307
249.529	647.72654
249.868	641.38322
250.206	607.51107
250.545	610.68958
250.883	621.28009
251.221	600.09208
251.56	597.97173
251.898	597.97173
252.236	609.63015
252.574	611.74894
252.912	594.79068
253.25	582.05997
253.588	589.48748
253.926	644.55518
254.264	629.74755
254.602	596.91145
254.94	625.51436
255.278	617.04472
255.615	561.88144
255.953	558.69289
256.29	605.39171
256.628	602.21215
256.965	560.81866
257.303	576.75242
257.64	627.63109
257.977	641.38322
258.314	610.68958
258.652	601.15215
258.989	638.21066
259.326	631.86373
259.663	626.57276
260	631.86373
260.337	600.09208
260.673	582.05997
261.01	592.66961
261.347	593.73018
261.684	562.94414
262.02	575.69069
262.357	583.12126
262.693	554.44043
263.03	585.24363
263.366	607.51107
263.702	603.27207
264.039	617.04472
264.375	605.39171
264.711	599.03194
265.047	604.33193
265.383	618.10366
265.719	625.51436
266.055	615.9857
266.391	622.33876
266.727	625.51436
267.063	606.45143
267.399	579.93717
267.734	604.33193
268.07	627.63109
268.405	617.04472
268.741	636.09528
269.076	628.68935
269.412	593.73018
269.747	591.60898
270.082	601.15215
270.418	595.8511
270.753	583.12126
271.088	576.75242
271.423	591.60898
271.758	614.92662
272.093	628.68935
272.428	612.80824
272.763	610.68958
273.098	619.16254
273.433	619.16254
273.767	622.33876
274.102	584.18248
274.436	556.56681
274.771	607.51107
275.106	625.51436
275.44	625.51436
275.774	630.80567
276.109	607.51107
276.443	591.60898
276.777	591.60898
277.111	606.45143
277.445	593.73018
277.78	606.45143
278.114	609.63015
278.447	589.48748
278.781	585.24363
279.115	603.27207
279.449	625.51436
279.783	625.51436
280.116	617.04472
280.45	610.68958
280.784	612.80824
281.117	626.57276
281.451	625.51436
281.784	674.13176
282.117	669.90963
282.451	595.8511
282.784	574.62889
283.117	614.92662
283.45	644.55518
283.783	591.60898
284.116	593.73018
284.449	630.80567
284.782	632.92172
285.115	653.01083
285.448	640.32577
285.781	607.51107
286.114	603.27207
286.446	602.21215
286.779	624.4559
287.111	600.09208
287.444	582.05997
287.776	595.8511
288.109	614.92662
288.441	601.15215
288.773	582.05997
289.106	656.18062
289.438	635.0375
289.77	580.99861
290.102	600.09208
290.434	601.15215
290.766	669.90963
291.098	662.51844
291.43	625.51436
291.762	639.26825
292.094	602.21215
292.425	608.57064
292.757	645.61237
293.089	673.07633
293.42	630.80567
293.752	612.80824
294.083	641.38322
294.414	675.18714
294.746	665.68648
295.077	647.72654
295.408	678.35288
295.74	719.45707
296.071	721.56251
296.402	694.17318
296.733	685.73743
297.064	665.68648
297.395	672.02082
297.726	698.38958
298.056	757.31963
298.387	779.37257
298.718	784.61975
299.049	805.59527
299.379	744.70699
299.71	719.45707
300.04	749.96324
300.371	742.6041
300.701	744.70699
301.031	837.02012
301.362	852.71586
301.692	793.01248
302.022	776.22362
302.352	782.52104
302.682	791.96357
303.012	764.67329
303.342	809.78788
303.672	837.02012
304.002	850.62372
304.332	833.87966
304.662	865.26469
304.992	867.3555
305.321	810.8359
305.651	869.44612
305.98	912.26372
306.31	899.73954
306.639	902.87118
306.969	883.03066
307.298	863.17369
307.628	951.88283
307.957	983.11915
308.286	947.71525
308.615	960.21604
308.944	1009.12256
309.273	985.20031
309.602	956.04976
309.931	1014.3204
310.26	979.99713
310.589	989.36215
310.918	1065.21136
311.247	1178.13153
311.575	1109.80273
311.904	1054.83235
312.233	1150.19478
312.561	1057.94641
312.89	1042.37293
313.218	1279.36121
313.546	1390.6449
313.875	1231.87718
314.203	1092.18088
314.531	1093.21772
314.859	1207.08079
315.188	1222.58036
315.516	1202.94653
315.844	1247.3671
316.172	1294.8336
316.5	1336.0669
316.827	1319.5781
317.155	1278.32952
317.483	1262.85117
317.811	1238.07386
318.138	1254.59372
318.466	1318.54735
318.794	1364.90828
319.121	1350.48979
319.449	1344.3091
319.776	1366.96771
320.103	1391.67408
320.431	1445.16313
320.758	1435.90934
321.085	1400.9358
321.412	1410.19582
321.739	1440.02233
322.066	1471.88734
322.393	1444.13501
322.72	1461.61035
323.047	1531.45685
323.374	1559.16678
323.701	1471.88734
324.028	1482.16241
324.354	1551.98395
324.681	1521.19064
325.008	1564.29685
325.334	1551.98395
325.661	1536.58929
325.987	1579.68451
326.314	1643.2472
326.64	1615.57438
326.966	1637.09869
327.293	1644.27189
327.619	1590.96637
327.945	1641.19776
328.271	1707.7728
328.597	1714.93859
328.923	1679.10226
329.249	1635.04906
329.575	1601.22086
329.901	1590.96637
330.227	1641.19776
330.552	1758.9413
330.878	1763.03321
331.204	1683.19878
331.529	1684.22287
331.855	1810.07404
332.18	1865.25872
332.506	1766.102
332.831	1660.66489
333.156	1743.59457
333.482	1810.07404
333.807	1786.55733
334.132	1780.42133
334.457	1790.64772
334.782	1802.91756
335.107	1791.67029
335.432	1760.98728
335.757	1755.87221
336.082	1794.73789
336.407	1783.48939
336.732	1824.38498
337.057	1863.21554
337.381	1759.9643
337.706	1712.8913
338.031	1738.47827
338.355	1756.89525
338.68	1891.81518
339.004	1920.40452
339.329	1881.60222
339.653	1816.20763
339.977	1768.14779
340.301	1835.62742
340.626	1850.95536
340.95	1880.58085
341.274	1891.81518
341.598	1920.40452
341.922	1979.59312
342.246	1954.08607
342.57	1933.67468
342.894	1948.9837
343.218	1981.63334
343.541	2032.62251
343.865	2020.38797
344.189	2038.73911
344.512	2034.66143
344.836	2043.83594
345.159	2018.3487
345.483	1963.26952
345.806	2012.23061
346.13	2101.91788
346.453	2125.34312
346.776	2046.89389
347.099	2115.15903
347.423	2099.88059
347.746	2051.99021
348.069	2159.95988
348.392	2192.52746
348.715	2139.59879
349.038	2092.74971
349.361	2068.29638
349.683	2111.08505
350.006	2175.22749
350.329	2201.68484
350.652	2223.04821
350.974	2179.29838
351.297	2146.72573
351.619	2172.17418
351.942	2225.08254
352.264	2249.49066
352.587	2223.04821
352.909	2225.08254
353.231	2247.45692
353.554	2254.5748
353.876	2303.367
354.198	2385.63972
354.52	2397.82138
354.842	2385.63972
355.164	2391.73077
355.486	2354.16218
355.808	2359.24
356.13	2360.25553
356.452	2440.4431
356.773	2422.17934
357.095	2271.85859
357.417	2320.6408
357.738	2316.5767
358.06	2345.02131
358.381	2333.84779
358.703	2277.95791
359.024	2395.79123
359.346	2408.98633
359.667	2389.70047
359.988	2385.63972
360.309	2404.92652
360.631	2371.42552
360.952	2335.87945
361.273	2362.28655
361.594	2430.29706
361.915	2520.55258
362.236	2476.95844
362.557	2513.45745
362.878	2528.66052
363.198	2455.6598
363.519	2453.63107
363.84	2457.68848
364.16	2487.0987
364.481	2556.01882
364.802	2493.18225
365.122	2518.52546
365.443	2614.75679
365.763	2551.96633
366.083	2481.0147
366.404	2471.88784
366.724	2555.00571
367.044	2583.36776
367.364	2500.27915
367.685	2490.14053
368.005	2435.37024
368.325	2430.29706
368.645	2499.26534
368.965	2430.29706
369.284	2472.90199
369.604	2596.53242
369.924	2608.68247
370.244	2739.17619
370.564	2715.92601
370.883	2574.25249
371.203	2639.04939
371.522	2724.01383
371.842	2786.6653
372.161	2707.83734
372.481	2610.70729
372.8	2618.80608
373.119	2697.7253
373.439	2744.22964
373.758	2694.69143
374.077	2639.04939
374.396	2660.29924
374.715	2664.34617
375.034	2640.06142
375.353	2608.68247
375.672	2482.02873
375.991	2313.52849
376.31	2273.89175
376.629	2229.15105
376.948	2253.558
377.266	2372.4409
377.585	2458.7028
377.904	2604.63266
378.222	2658.27569
378.541	2698.73657
378.859	2750.29333
379.178	2790.70555
379.496	2848.25535
379.814	2798.78539
380.133	2758.3775
380.451	2687.61193
380.769	2607.67003
381.087	2638.03735
381.405	2607.67003
381.723	2635.00115
382.041	2745.24028
382.359	2715.92601
382.677	2726.03565
382.995	2838.16211
383.313	2803.83485
383.631	2782.62483
383.949	2755.34604
384.266	2723.0029
384.584	2751.3039
384.901	2743.21897
385.219	2766.46081
385.537	2787.67538
385.854	2833.11497
386.171	2861.3745
386.489	2872.47349
386.806	2852.29226
387.123	2854.31063
387.441	2814.94245
387.758	2852.29226
388.075	2826.04841
388.392	2706.8262
388.709	2729.06829
389.026	2703.79268
389.343	2734.1224
389.66	2896.68366
389.977	2909.79416
390.294	2814.94245
390.61	2852.29226
390.927	2918.86928
391.244	2879.53562
391.56	2797.77545
391.877	2784.64509
392.193	2798.78539
392.51	2879.53562
392.826	2857.33808
393.143	2783.63497
393.459	2854.31063
393.775	2829.07702
394.092	2793.73559
394.408	2873.48241
394.724	2865.41069
395.04	2848.25535
395.356	2912.81933
395.672	3000.49411
395.988	3043.78803
396.304	3022.64778
396.62	3050.83337
396.936	3101.1368
397.252	3110.18759
397.567	3063.91572
397.883	3033.72203
398.199	3088.06137
398.514	3082.02574
398.83	3123.25889
399.146	3140.34843
399.461	3114.20979
399.777	3111.19316
400.092	3090.07314
400.407	3048.82049
400.723	3004.52257
401.038	2945.07991
401.353	2880.54444
401.668	2911.81095
401.983	2899.70937
402.298	2900.71791
402.613	2923.91052
402.928	2901.72644
403.243	2876.50907
403.558	2867.4287
403.873	2982.36327
404.188	2955.1584
404.503	2852.29226
404.817	2886.59706
405.132	2868.43769
405.447	2875.5002
405.761	2989.4147
406.076	3074.98351
406.39	2947.09572
406.705	2916.85268
407.019	2998.4798
407.334	3000.49411
407.648	3069.95291
407.962	2989.4147
408.276	2905.76041
408.591	2957.17393
408.905	2989.4147
409.219	3049.82694
409.533	3068.94675
409.847	3045.80105
410.161	3024.66141
410.475	3071.96519
410.789	3055.86533
411.102	3024.66141
411.416	3090.07314
411.73	3142.35868
412.044	3140.34843
412.357	3079.00773
412.671	3035.73534
412.984	2977.32611
413.298	3013.58575
413.611	3090.07314
413.925	3125.26964
414.238	3122.25349
414.552	3082.02574
414.865	3003.51547
415.178	2963.22017
415.491	2959.1894
415.804	2999.48696
416.118	2977.32611
416.431	2878.52678
416.744	2940.04014
417.057	2956.16617
417.37	2925.92692
417.683	2894.66645
417.995	2927.94326
418.308	2939.03215
418.621	2914.83603
418.934	2893.65783
419.246	2930.96767
419.559	3136.32774
419.872	3166.47725
420.184	3063.91572
420.497	3070.95906
420.809	3141.35356
421.121	3025.6682
421.434	2999.48696
421.746	3062.90947
422.058	3006.53671
422.371	3035.73534
422.683	3036.74198
422.995	2939.03215
423.307	2946.08783
423.619	2945.07991
423.931	2854.31063
424.243	2925.92692
424.555	2931.97578
424.867	2910.80256
425.179	2970.27349
425.491	2946.08783
425.802	2898.70082
426.114	2889.62319
426.426	2892.64919
426.737	2835.13387
427.049	2835.13387
427.361	2957.17393
427.672	2967.25072
427.984	2821.00045
428.295	2810.90352
428.606	2816.96184
428.918	2793.73559
429.229	2986.39274
429.54	2986.39274
429.851	2793.73559
430.163	2800.80521
430.474	2803.83485
430.785	2740.1869
431.096	2800.80521
431.407	2837.15271
431.718	2809.89375
432.029	2836.1433
432.339	2819.99082
432.65	2819.99082
432.961	2784.64509
433.272	2709.85959
433.582	2769.49183
433.893	2782.62483
434.204	2761.40884
434.514	2814.94245
434.825	2749.28275
435.135	2750.29333
435.446	2832.10551
435.756	2850.27383
436.066	2862.38356
436.377	2926.9351
436.687	2932.98388
436.997	2887.60579
437.307	2900.71791
437.617	2902.73495
437.927	2880.54444
438.237	2858.34721
438.547	2847.24608
438.857	2846.23681
439.167	2974.30364
439.477	2938.02414
439.787	2884.57958
440.097	2918.86928
440.407	2865.41069
440.716	2849.26459
441.026	2849.26459
441.336	2888.61449
441.645	2891.64054
441.955	2816.96184
442.264	2852.29226
442.574	2978.33357
442.883	2930.96767
443.192	2890.63187
443.502	2974.30364
443.811	3040.76838
444.12	2943.06405
444.429	2809.89375
444.739	2809.89375
445.048	2849.26459
445.357	2919.87755
445.666	2962.2125
445.975	2920.88582
446.284	2824.02927
446.593	2742.2083
446.901	2791.71557
447.21	2856.32894
447.519	2795.75555
447.828	2785.6552
448.136	2802.82498
448.445	2821.00045
448.754	2848.25535
449.062	2850.27383
449.371	2931.97578
449.679	2969.26591
449.988	2915.84436
450.296	2972.28859
450.605	3054.85897
450.913	3179.53797
451.221	3427.22054
451.529	3567.20853
451.838	3414.20702
452.146	3237.7788
452.454	3340.08258
452.762	3436.22844
453.07	3294.96743
453.378	3147.38408
453.686	3055.86533
453.994	3137.33293
454.302	3175.51955
454.609	3024.66141
454.917	3012.57879
455.225	3026.67498
455.533	2953.14282
455.84	2907.77731
456.148	2938.02414
456.455	2891.64054
456.763	2849.26459
457.07	3010.56482
457.378	3081.01975
457.685	3031.70866
457.993	3013.58575
458.3	2992.43653
458.607	3030.70195
458.915	3094.09649
459.222	3108.17641
459.529	3058.88434
459.836	3117.22629
460.143	3074.98351
460.45	2947.09572
460.757	2971.28105
461.064	2998.4798
461.371	3003.51547
461.678	3030.70195
461.985	3089.06726
462.292	3157.43377
462.598	3283.93474
462.905	3371.14454
463.212	3448.23712
463.518	3478.24953
463.825	3551.22446
464.131	3804.53434
464.438	3820.46009
464.744	3635.09915
465.051	3523.24333
465.357	3533.23791
465.664	3520.24467
465.97	3428.22148
466.276	3427.22054
466.582	3392.17846
466.889	3305.99833
467.195	3403.19363
467.501	3570.20512
467.807	3813.49301
468.113	4057.93575
468.419	4228.38243
468.725	4354.99974
469.031	4454.78337
469.337	4577.15204
469.642	4461.6952
469.948	4289.73573
470.254	4312.48472
470.56	4213.53218
470.865	4004.3467
471.171	3893.07629
471.477	3823.44577
471.782	3680.98713
472.088	3585.18613
472.393	3712.89124
472.698	3620.12906
473.004	3358.12028
473.309	3441.23232
473.614	3627.11551
473.92	3723.85489
474.225	3764.70423
474.53	3734.81681
474.835	3668.02188
475.14	3639.09062
475.445	3652.06131
475.75	3548.22703
476.055	3531.23911
476.36	3457.24224
476.665	3169.49148
476.97	3150.39914
477.275	3248.81892
477.58	3167.48201
477.885	3238.78252
478.189	3183.55616
478.494	3100.13109
478.799	3123.25889
479.103	3080.01374
479.408	3096.10808
479.712	3148.38911
480.017	3226.73691
480.321	3294.96743
480.625	3242.79725
480.93	3329.05718
481.234	3593.17466
481.538	3647.07287
481.843	3713.88801
482.147	3889.09922
482.451	3924.88503
482.755	3948.73249
483.059	3953.69974
483.363	3866.22681
483.667	3906.99433
483.971	3993.42576
484.275	4051.98328
484.579	4112.4788
484.883	4158.06757
485.187	4153.11353
485.49	4152.12269
485.794	4060.91182
486.098	4013.28084
486.401	4018.2438
486.705	3925.87883
487.009	3857.27476
487.312	3944.75845
487.616	3994.41864
487.919	3883.13321
488.222	3892.08205
488.526	3862.24826
488.829	3903.01802
489.132	3947.739
489.436	3827.42649
489.739	3854.29049
490.042	3876.17223
490.345	3941.77778
490.648	3968.59949
490.951	3930.84762
491.254	3997.39719
491.557	4054.95957
491.86	4050.99115
492.163	4102.56472
492.466	4172.92787
492.769	4307.53979
493.072	4523.88024
493.375	4655.04044
493.677	4719.08742
493.98	4725.98284
494.283	4655.04044
494.585	4515.98583
494.888	4451.82101
495.19	4360.93047
495.493	4354.99974
495.795	4296.65996
496.098	4182.83322
496.4	4239.27093
496.702	4150.14096
497.005	4088.6829
497.307	4201.65007
497.609	4203.63054
497.911	4132.30322
498.213	4063.88777
498.515	4058.92779
498.818	4064.87973
499.12	4072.81493
499.422	4060.91182
499.723	4049.99901
500.025	4154.10436
500.327	4124.37404
500.629	4207.59134
500.931	4264.0123
501.233	4103.55618
501.534	4093.64098
501.836	4105.53907
502.138	4123.38284
502.439	4196.69868
502.741	4183.82368
503.042	4230.36226
503.344	4204.62076
503.645	4288.74651
503.947	4316.44046
504.248	4246.19924
504.55	4335.22782
504.851	4338.19389
505.152	4351.0457
505.453	4311.49575
505.755	4360.93047
506.056	4346.10291
506.357	4265.9913
506.658	4335.22782
506.959	4372.79077
507.26	4411.32626
507.561	4343.13711
507.862	4306.55077
508.163	4350.05717
508.464	4332.26166
508.764	4404.4108
509.065	4338.19389
509.366	4347.09149
509.667	4481.44064
509.967	4434.04492
510.268	4376.74387
510.569	4349.06862
510.869	4337.20521
511.17	4327.31784
511.47	4331.27292
511.771	4293.6925
512.071	4373.77906
512.371	4447.87105
512.672	4329.2954
512.972	4346.10291
513.272	4406.3867
513.573	4366.86081
513.873	4408.36255
514.173	4357.96515
514.473	4326.32904
514.773	4394.5307
515.073	4353.02274
515.373	4289.73573
515.673	4288.74651
515.973	4280.83234
516.273	4292.70333
516.573	4339.18256
516.873	4233.33192
517.172	4272.91744
517.472	4321.38489
517.772	4240.26072
518.072	4268.95971
518.371	4357.96515
518.671	4445.89601
518.97	4371.80247
519.27	4299.62732
519.569	4297.64909
519.869	4302.59458
520.168	4339.18256
520.468	4298.63821
520.767	4277.86434
521.066	4250.15802
521.366	4255.10624
521.665	4253.12699
521.964	4258.07503
522.263	4269.94916
522.562	4343.13711
522.861	4353.02274
523.161	4237.29131
523.46	4250.15802
523.759	4278.85368
524.057	4404.4108
524.356	4385.63771
524.655	4295.67082
524.954	4341.15985
525.253	4265.9913
525.552	4357.96515
525.85	4376.74387
526.149	4272.91744
526.448	4359.94204
526.746	4296.65996
527.045	4208.58151
527.344	4335.22782
527.642	4434.04492
527.941	4465.64461
528.239	4402.43487
528.537	4290.72494
