Data from sample_5_A_6Oclock_ST026791__10__23119.txt Node

Date: Tue Aug 19 16:39:33 AEST 2025
User: mathewyoussef
Spectrometer: ST02679
Trigger mode: 0
Integration Time (sec): 6.653700E-1
Scans to average: 1
Nonlinearity correction enabled: true
Boxcar width: 0
Storing dark spectrum: false
XAxis mode: Wavelengths
Number of Pixels in Spectrum: 1516
>>>>>Begin Spectral Data<<<<<
187.304	589.48748
187.653	622.33876
188.002	631.86373
188.351	604.33193
188.7	580.99861
189.048	601.15215
189.397	639.26825
189.746	626.57276
190.094	591.60898
190.443	586.3047
190.791	619.16254
191.14	628.68935
191.488	629.74755
191.837	630.80567
192.185	601.15215
192.533	592.66961
192.881	606.45143
193.229	603.27207
193.577	631.86373
193.925	637.15301
194.273	596.91145
194.621	596.91145
194.969	589.48748
195.317	594.79068
195.664	631.86373
196.012	610.68958
196.359	578.87566
196.707	578.87566
197.054	596.91145
197.402	613.86746
197.749	609.63015
198.096	587.3657
198.443	570.38093
198.791	589.48748
199.138	604.33193
199.485	622.33876
199.832	635.0375
200.179	623.39736
200.525	602.21215
200.872	584.18248
201.219	628.68935
201.566	665.68648
201.912	643.49793
202.259	614.92662
202.605	604.33193
202.952	609.63015
203.298	604.33193
203.644	589.48748
203.991	573.56701
204.337	572.50506
204.683	604.33193
205.029	618.10366
205.375	593.73018
205.721	610.68958
206.067	640.32577
206.413	642.44061
206.759	615.9857
207.104	614.92662
207.45	630.80567
207.796	623.39736
208.141	621.28009
208.487	619.16254
208.832	613.86746
209.177	587.3657
209.523	587.3657
209.868	605.39171
210.213	591.60898
210.558	575.69069
210.903	597.97173
211.248	600.09208
211.593	608.57064
211.938	629.74755
212.283	644.55518
212.628	657.23708
212.973	627.63109
213.317	613.86746
213.662	604.33193
214.007	603.27207
214.351	592.66961
214.696	608.57064
215.04	636.09528
215.384	636.09528
215.729	627.63109
216.073	614.92662
216.417	611.74894
216.761	586.3047
217.105	637.15301
217.449	648.78353
217.793	593.73018
218.137	612.80824
218.481	615.9857
218.824	620.22135
219.168	613.86746
219.512	611.74894
219.855	623.39736
220.199	603.27207
220.542	585.24363
220.886	595.8511
221.229	624.4559
221.572	605.39171
221.916	593.73018
222.259	601.15215
222.602	584.18248
222.945	591.60898
223.288	610.68958
223.631	592.66961
223.974	572.50506
224.317	587.3657
224.659	612.80824
225.002	641.38322
225.345	650.89731
225.687	629.74755
226.03	656.18062
226.372	649.84046
226.715	606.45143
227.057	610.68958
227.4	601.15215
227.742	587.3657
228.084	625.51436
228.426	648.78353
228.768	606.45143
229.11	610.68958
229.452	624.4559
229.794	604.33193
230.136	605.39171
230.478	602.21215
230.82	596.91145
231.161	591.60898
231.503	656.18062
231.845	685.73743
232.186	698.38958
232.528	701.55124
232.869	633.97964
233.21	627.63109
233.552	612.80824
233.893	615.9857
234.234	620.22135
234.575	620.22135
234.916	632.92172
235.257	604.33193
235.598	605.39171
235.939	617.04472
236.28	602.21215
236.621	604.33193
236.961	640.32577
237.302	654.06749
237.643	621.28009
237.983	606.45143
238.324	609.63015
238.664	641.38322
239.005	629.74755
239.345	589.48748
239.685	596.91145
240.025	606.45143
240.366	620.22135
240.706	629.74755
241.046	606.45143
241.386	592.66961
241.726	619.16254
242.066	603.27207
242.405	577.81408
242.745	625.51436
243.085	638.21066
243.425	621.28009
243.764	641.38322
244.104	693.11893
244.443	701.55124
244.783	638.21066
245.122	611.74894
245.461	590.54827
245.801	583.12126
246.14	576.75242
246.479	580.99861
246.818	582.05997
247.157	618.10366
247.496	631.86373
247.835	585.24363
248.174	586.3047
248.513	578.87566
248.852	655.12409
249.19	686.79211
249.529	632.92172
249.868	636.09528
250.206	617.04472
250.545	603.27207
250.883	631.86373
251.221	607.51107
251.56	584.18248
251.898	614.92662
252.236	629.74755
252.574	618.10366
252.912	605.39171
253.25	600.09208
253.588	610.68958
253.926	630.80567
254.264	613.86746
254.602	602.21215
254.94	618.10366
255.278	617.04472
255.615	619.16254
255.953	602.21215
256.29	588.42663
256.628	599.03194
256.965	602.21215
257.303	612.80824
257.64	642.44061
257.977	642.44061
258.314	603.27207
258.652	594.79068
258.989	611.74894
259.326	602.21215
259.663	596.91145
260	617.04472
260.337	618.10366
260.673	606.45143
261.01	607.51107
261.347	604.33193
261.684	602.21215
262.02	613.86746
262.357	635.0375
262.693	614.92662
263.03	591.60898
263.366	614.92662
263.702	606.45143
264.039	600.09208
264.375	619.16254
264.711	617.04472
265.047	603.27207
265.383	604.33193
265.719	610.68958
266.055	618.10366
266.391	635.0375
266.727	628.68935
267.063	625.51436
267.399	629.74755
267.734	637.15301
268.07	642.44061
268.405	632.92172
268.741	644.55518
269.076	646.66949
269.412	586.3047
269.747	571.44303
270.082	591.60898
270.418	586.3047
270.753	606.45143
271.088	613.86746
271.423	613.86746
271.758	604.33193
272.093	591.60898
272.428	585.24363
272.763	613.86746
273.098	632.92172
273.433	615.9857
273.767	597.97173
274.102	586.3047
274.436	587.3657
274.771	606.45143
275.106	605.39171
275.44	613.86746
275.774	629.74755
276.109	596.91145
276.443	592.66961
276.777	607.51107
277.111	644.55518
277.445	657.23708
277.78	626.57276
278.114	623.39736
278.447	623.39736
278.781	611.74894
279.115	612.80824
279.449	613.86746
279.783	604.33193
280.116	625.51436
280.45	605.39171
280.784	596.91145
281.117	644.55518
281.451	631.86373
281.784	687.84674
282.117	692.06461
282.451	614.92662
282.784	592.66961
283.117	606.45143
283.45	636.09528
283.783	617.04472
284.116	604.33193
284.449	617.04472
284.782	625.51436
285.115	654.06749
285.448	638.21066
285.781	606.45143
286.114	604.33193
286.446	608.57064
286.779	666.74236
287.111	667.79818
287.444	621.28009
287.776	632.92172
288.109	641.38322
288.441	605.39171
288.773	613.86746
289.106	707.87292
289.438	668.85394
289.77	595.8511
290.102	612.80824
290.434	606.45143
290.766	691.01024
291.098	704.71235
291.43	633.97964
291.762	657.23708
292.094	674.13176
292.425	637.15301
292.757	623.39736
293.089	648.78353
293.42	617.04472
293.752	617.04472
294.083	659.34982
294.414	672.02082
294.746	666.74236
295.077	639.26825
295.408	653.01083
295.74	703.65871
296.071	705.76593
296.402	673.07633
296.733	680.46307
297.064	695.22737
297.395	697.33557
297.726	716.29847
298.056	791.96357
298.387	791.96357
298.718	776.22362
299.049	825.50291
299.379	784.61975
299.71	787.76742
300.04	789.8656
300.371	723.66772
300.701	732.0862
301.031	811.88388
301.362	841.20672
301.692	834.92653
302.022	815.02749
302.352	806.6435
302.682	816.07526
303.012	790.91461
303.342	832.83274
303.672	830.73875
304.002	826.55018
304.332	841.20672
304.662	865.26469
304.992	872.58171
305.321	839.11351
305.651	885.11991
305.98	920.60968
306.31	878.85163
306.639	890.34222
306.969	928.95289
307.298	897.65156
307.628	906.00242
307.957	901.82735
308.286	911.22028
308.615	947.71525
308.944	964.38168
309.273	964.38168
309.602	959.17453
309.931	1033.02502
310.26	1074.54953
310.589	1096.32804
310.918	1114.98385
311.247	1140.8777
311.575	1128.45108
311.904	1082.84784
312.233	1147.08936
312.561	1133.62938
312.89	1099.43807
313.218	1212.248
313.546	1256.65824
313.875	1205.01372
314.203	1179.16582
314.531	1185.37093
314.859	1191.57501
315.188	1230.84431
315.516	1253.56143
315.844	1213.28136
316.172	1264.91528
316.5	1289.67675
316.827	1276.26607
317.155	1292.77093
317.483	1282.45613
317.811	1255.62599
318.138	1264.91528
318.466	1295.86489
318.794	1290.70817
319.121	1315.45497
319.449	1412.25337
319.776	1354.6098
320.103	1326.79268
320.431	1448.24736
320.758	1449.2754
321.085	1417.39689
321.412	1388.58646
321.739	1438.99412
322.066	1466.74908
322.393	1425.62546
322.72	1500.65279
323.047	1523.24403
323.374	1542.74763
323.701	1541.72128
324.028	1495.51718
324.354	1525.29734
324.681	1503.73394
325.008	1613.52407
325.334	1607.37276
325.661	1515.03005
325.987	1610.44849
326.314	1630.94961
326.64	1560.19283
326.966	1578.65879
327.293	1618.64971
327.619	1644.27189
327.945	1638.12348
328.271	1657.59151
328.597	1696.51078
328.923	1668.8599
329.249	1639.14826
329.575	1631.9745
329.901	1644.27189
330.227	1686.27101
330.552	1738.47827
330.878	1733.36161
331.204	1716.98583
331.529	1654.51799
331.855	1716.98583
332.18	1807.00706
332.506	1697.53468
332.831	1648.37052
333.156	1766.102
333.482	1781.44403
333.807	1708.79653
334.132	1697.53468
334.457	1748.7105
334.782	1815.1854
335.107	1818.25205
335.432	1750.75678
335.757	1764.05616
336.082	1830.51742
336.407	1801.89515
336.732	1797.80537
337.057	1844.82455
337.381	1824.38498
337.706	1776.33037
338.031	1777.35313
338.355	1799.85029
338.68	1865.25872
339.004	1898.96348
339.329	1939.79864
339.653	1862.19394
339.977	1814.16316
340.301	1941.83985
340.626	1958.16773
340.95	1917.34187
341.274	1891.81518
341.598	1862.19394
341.922	1941.83985
342.246	1981.63334
342.57	1936.73672
342.894	1970.41149
343.218	2007.13185
343.541	2044.85527
343.865	2034.66143
344.189	2007.13185
344.512	2050.97097
344.836	2064.22014
345.159	1965.31015
345.483	1972.45194
345.806	1998.97318
346.13	2057.08623
346.453	2131.45299
346.776	2057.08623
347.099	2076.44828
347.423	2117.19594
347.746	2062.18194
348.069	2119.23281
348.392	2181.33376
348.715	2122.28802
349.038	2088.67465
349.361	2088.67465
349.683	2155.88805
350.006	2169.12077
350.329	2135.52599
350.652	2222.03103
350.974	2203.71967
351.297	2161.99572
351.619	2269.82539
351.942	2292.18794
352.264	2247.45692
352.587	2235.25345
352.909	2278.97442
353.231	2225.08254
353.554	2207.78921
353.876	2270.842
354.198	2354.16218
354.52	2352.13096
354.842	2268.80877
355.164	2362.28655
355.486	2417.10536
355.808	2337.91106
356.13	2333.84779
356.452	2456.67415
356.773	2437.39942
357.095	2313.52849
357.417	2302.35078
357.738	2321.6568
358.06	2363.30204
358.381	2361.27104
358.703	2376.5023
359.024	2422.17934
359.346	2347.0527
359.667	2320.6408
359.988	2316.5767
360.309	2308.4479
360.631	2355.17776
360.952	2401.88154
361.273	2410.00126
361.594	2424.20885
361.915	2507.37542
362.236	2523.59315
362.557	2492.16836
362.878	2516.4983
363.198	2475.94435
363.519	2429.28239
363.84	2435.37024
364.16	2438.41399
364.481	2509.40282
364.802	2502.30672
365.122	2544.87397
365.443	2650.18098
365.763	2608.68247
366.083	2467.83113
366.404	2437.39942
366.724	2475.94435
367.044	2473.91612
367.364	2499.26534
367.685	2470.87368
368.005	2357.20891
368.325	2334.86363
368.645	2443.48666
368.965	2474.93024
369.284	2440.4431
369.604	2497.23769
369.924	2550.95317
370.244	2621.84291
370.564	2604.63266
370.883	2526.63361
371.203	2574.25249
371.522	2606.65759
371.842	2668.39289
372.161	2683.56622
372.481	2654.22844
372.8	2655.24027
373.119	2727.04655
373.439	2745.24028
373.758	2683.56622
374.077	2664.34617
374.396	2663.33445
374.715	2639.04939
375.034	2552.97947
375.353	2531.70079
375.672	2446.53012
375.991	2324.70471
376.31	2283.04034
376.629	2174.20973
376.948	2192.52746
377.266	2304.3832
377.585	2403.91154
377.904	2568.17506
378.222	2653.2166
378.541	2676.4857
378.859	2743.21897
379.178	2780.60452
379.496	2700.75905
379.814	2642.08544
380.133	2679.52029
380.451	2689.63471
380.769	2633.98905
381.087	2612.73207
381.405	2624.87962
381.723	2638.03735
382.041	2647.14525
382.359	2699.74782
382.677	2717.94805
382.995	2784.64509
383.313	2738.16546
383.631	2619.81837
383.949	2702.78149
384.266	2777.57395
384.584	2778.58415
384.901	2697.7253
385.219	2737.15471
385.537	2743.21897
385.854	2715.92601
386.171	2757.36703
386.489	2774.54326
386.806	2852.29226
387.123	2863.39262
387.441	2801.8151
387.758	2869.44666
388.075	2811.91327
388.392	2650.18098
388.709	2646.13332
389.026	2718.95905
389.343	2730.07914
389.66	2733.11161
389.977	2830.08653
390.294	2825.03885
390.61	2842.19957
390.927	2892.64919
391.244	2829.07702
391.56	2782.62483
391.877	2719.97003
392.193	2701.77028
392.51	2802.82498
392.826	2821.00045
393.143	2821.00045
393.459	2906.76887
393.775	2899.70937
394.092	2769.49183
394.408	2786.6653
394.724	2897.69225
395.04	2925.92692
395.356	2937.01611
395.672	3020.6341
395.988	3043.78803
396.304	3019.62723
396.62	3019.62723
396.936	3110.18759
397.252	3119.23721
397.567	3045.80105
397.883	3150.39914
398.199	3113.20426
398.514	2993.44377
398.83	3024.66141
399.146	3089.06726
399.461	3156.42886
399.777	3062.90947
400.092	2997.47262
400.407	3036.74198
400.723	2955.1584
401.038	2904.75194
401.353	2899.70937
401.668	2919.87755
401.983	2843.2089
402.298	2802.82498
402.613	2890.63187
402.928	2898.70082
403.243	2806.86436
403.558	2816.96184
403.873	2930.96767
404.188	2913.82769
404.503	2883.57081
404.817	2878.52678
405.132	2870.45562
405.447	2890.63187
405.761	2988.40739
406.076	3002.50837
406.39	2943.06405
406.705	2908.78574
407.019	2946.08783
407.334	3035.73534
407.648	3001.50125
407.962	2905.76041
408.276	2885.58833
408.591	2922.9023
408.905	2922.9023
409.219	3006.53671
409.533	3052.8462
409.847	3032.71535
410.161	2963.22017
410.475	3010.56482
410.789	3091.079
411.102	3034.72869
411.416	3139.34328
411.73	3195.60932
412.044	3102.1425
412.357	3058.88434
412.671	3018.62036
412.984	2951.12717
413.298	2904.75194
413.611	2999.48696
413.925	3095.10229
414.238	3030.70195
414.552	3033.72203
414.865	3026.67498
415.178	2977.32611
415.491	2961.20482
415.804	2989.4147
416.118	2965.23548
416.431	2901.72644
416.744	2880.54444
417.057	2897.69225
417.37	2924.91873
417.683	2886.59706
417.995	2924.91873
418.308	2970.27349
418.621	3009.55781
418.934	2984.37803
419.246	2957.17393
419.559	3031.70866
419.872	3038.75521
420.184	3047.81402
420.497	3054.85897
420.809	3113.20426
421.121	3073.97742
421.434	2994.45101
421.746	3050.83337
422.058	3027.68175
422.371	3038.75521
422.683	2999.48696
422.995	2868.43769
423.307	2873.48241
423.619	2998.4798
423.931	2963.22017
424.243	2879.53562
424.555	2917.86099
424.867	2974.30364
425.179	3022.64778
425.491	2940.04014
425.802	2857.33808
426.114	2880.54444
426.426	2839.17149
426.737	2776.56373
427.049	2817.97152
427.361	2925.92692
427.672	2954.15061
427.984	2832.10551
428.295	2847.24608
428.606	2846.23681
428.918	2836.1433
429.229	3007.54376
429.54	2964.22783
429.851	2789.6955
430.163	2790.70555
430.474	2759.38796
430.785	2799.79531
431.096	2830.08653
431.407	2813.93274
431.718	2822.01007
432.029	2749.28275
432.339	2745.24028
432.65	2839.17149
432.961	2834.12443
433.272	2740.1869
433.582	2755.34604
433.893	2771.51244
434.204	2729.06829
434.514	2712.89286
434.825	2742.2083
435.135	2770.50214
435.446	2845.22752
435.756	2890.63187
436.066	2879.53562
436.377	2912.81933
436.687	2942.05609
436.997	2903.74345
437.307	2937.01611
437.617	2939.03215
437.927	2840.18087
438.237	2845.22752
438.547	2895.67507
438.857	2870.45562
439.167	2866.4197
439.477	2911.81095
439.787	2926.9351
440.097	2950.11933
440.407	2897.69225
440.716	2816.96184
441.026	2828.0675
441.336	2870.45562
441.645	2847.24608
441.955	2801.8151
442.264	2868.43769
442.574	2969.26591
442.883	2904.75194
443.192	2889.62319
443.502	2992.43653
443.811	2982.36327
444.12	2948.10361
444.429	2887.60579
444.739	2839.17149
445.048	2846.23681
445.357	2847.24608
445.666	2842.19957
445.975	2832.10551
446.284	2761.40884
446.593	2728.05742
446.901	2756.35654
447.21	2796.76551
447.519	2799.79531
447.828	2772.52273
448.136	2777.57395
448.445	2844.21822
448.754	2825.03885
449.062	2818.98118
449.371	2897.69225
449.679	2868.43769
449.988	2912.81933
450.296	3069.95291
450.605	3070.95906
450.913	3197.61797
451.221	3460.24368
451.529	3455.2412
451.838	3288.94982
452.146	3197.61797
452.454	3223.72517
452.762	3335.07126
453.07	3237.7788
453.378	3032.71535
453.686	3095.10229
453.994	3212.68103
454.302	3138.33811
454.609	2973.29612
454.917	2970.27349
455.225	2993.44377
455.533	2887.60579
455.84	2877.51794
456.148	2880.54444
456.455	2838.16211
456.763	2919.87755
457.07	3012.57879
457.378	3095.10229
457.685	3068.94675
457.993	3010.56482
458.3	3071.96519
458.607	3085.04362
458.915	3081.01975
459.222	3126.27499
459.529	3188.57856
459.836	3222.72123
460.143	3086.04955
460.45	2942.05609
460.757	2942.05609
461.064	3032.71535
461.371	3136.32774
461.678	3088.06137
461.985	3068.94675
462.292	3146.37903
462.598	3264.8741
462.905	3372.1463
463.212	3430.22331
463.518	3476.24912
463.825	3450.23836
464.131	3693.94995
464.438	3826.43133
464.744	3634.10125
465.051	3589.18051
465.357	3587.18335
465.664	3601.16225
465.97	3522.24379
466.276	3466.24616
466.582	3378.15657
466.889	3284.93779
467.195	3432.22508
467.501	3576.19792
467.807	3860.2589
468.113	4068.84743
468.419	4173.91846
468.725	4353.02274
469.031	4465.64461
469.337	4615.60993
469.642	4542.62706
469.948	4347.09149
470.254	4328.30663
470.56	4139.24059
470.865	3875.17775
471.171	3780.63898
471.477	3768.68825
471.782	3695.94401
472.088	3563.21286
472.393	3664.03209
472.698	3644.07964
473.004	3533.23791
473.309	3594.17316
473.614	3596.17011
473.92	3635.09915
474.225	3703.91969
474.53	3722.85826
474.835	3686.97027
475.14	3643.08186
475.445	3697.93802
475.75	3624.1214
476.055	3421.21461
476.36	3313.01707
476.665	3211.67693
476.97	3165.47247
477.275	3242.79725
477.58	3230.75235
477.885	3214.68919
478.189	3137.33293
478.494	3011.57181
478.799	2983.37066
479.103	3026.67498
479.408	3060.89693
479.712	3107.17079
480.017	3197.61797
480.321	3185.56516
480.625	3141.35356
480.93	3227.74079
481.234	3396.18419
481.538	3491.2508
481.843	3638.09278
482.147	3811.50229
482.451	3848.32158
482.755	3914.94629
483.059	3951.71288
483.363	3994.41864
483.667	3981.51018
483.971	3936.80973
484.275	4020.22889
484.579	4065.87167
484.883	4066.8636
485.187	4076.78223
485.49	4058.92779
485.794	3997.39719
486.098	3985.48225
486.401	3991.43996
486.705	3903.01802
487.009	3866.22681
487.312	3978.53099
487.616	4034.12306
487.919	3919.91583
488.222	3796.57011
488.526	3816.47899
488.829	3929.85389
489.132	3944.75845
489.436	3858.26948
489.739	3893.07629
490.042	3906.99433
490.345	3936.80973
490.648	3981.51018
490.951	3913.95234
491.254	3975.55168
491.557	4093.64098
491.86	4075.79042
492.163	4150.14096
492.466	4276.87498
492.769	4452.80847
493.072	4513.02527
493.375	4494.27308
493.677	4599.83394
493.98	4581.09706
494.283	4538.68064
494.585	4536.70738
494.888	4495.26013
495.19	4383.66137
495.493	4290.72494
495.795	4307.53979
496.098	4263.02279
496.4	4173.91846
496.702	4104.54764
497.005	4151.13183
497.307	4190.75663
497.609	4066.8636
497.911	4105.53907
498.213	4136.2675
498.515	4035.11541
498.818	4061.90381
499.12	4131.31211
499.422	4078.7658
499.723	4116.44408
500.025	4256.09585
500.327	4131.31211
500.629	4114.46146
500.931	4205.61096
501.233	4109.50471
501.534	4067.85552
501.836	4099.59025
502.138	4175.8996
502.439	4187.78544
502.741	4148.15919
503.042	4190.75663
503.344	4249.16835
503.645	4321.38489
503.947	4287.75728
504.248	4270.9386
504.55	4274.89623
504.851	4282.81095
505.152	4372.79077
505.453	4356.97669
505.755	4306.55077
506.056	4294.68167
506.357	4298.63821
506.658	4345.11432
506.959	4353.02274
507.26	4430.09424
507.561	4432.0696
507.862	4384.64955
508.163	4400.45889
508.464	4343.13711
508.764	4300.61642
509.065	4271.92802
509.366	4307.53979
509.667	4384.64955
509.967	4372.79077
510.268	4290.72494
510.569	4336.21652
510.869	4375.75561
511.17	4287.75728
511.47	4320.39602
511.771	4332.26166
512.071	4349.06862
512.371	4358.9536
512.672	4302.59458
512.972	4350.05717
513.272	4352.03423
513.573	4355.98822
513.873	4392.55455
514.173	4333.25039
514.473	4297.64909
514.773	4365.87245
515.073	4296.65996
515.373	4298.63821
515.673	4310.50678
515.973	4265.9913
516.273	4378.72035
516.573	4415.27772
516.873	4331.27292
517.172	4307.53979
517.472	4283.80024
517.772	4298.63821
518.072	4322.37374
518.371	4350.05717
518.671	4393.54263
518.97	4343.13711
519.27	4278.85368
519.569	4287.75728
519.869	4340.17121
520.168	4278.85368
520.468	4224.42262
520.767	4233.33192
521.066	4213.53218
521.366	4296.65996
521.665	4309.51779
521.964	4218.48256
522.263	4209.57167
522.562	4260.05417
522.861	4265.00181
523.161	4227.39249
523.46	4263.02279
523.759	4269.94916
524.057	4260.05417
524.356	4227.39249
524.655	4224.42262
524.954	4234.32179
525.253	4239.27093
525.552	4308.5288
525.85	4300.61642
526.149	4287.75728
526.448	4301.60551
526.746	4219.4726
527.045	4181.84274
527.344	4315.45154
527.642	4420.21682
527.941	4406.3867
528.239	4345.11432
