Data from sample_5_A_6Oclock_ST026791__112__23221.txt Node

Date: Tue Aug 19 16:41:52 AEST 2025
User: mathewyoussef
Spectrometer: ST02679
Trigger mode: 0
Integration Time (sec): 6.653700E-1
Scans to average: 1
Nonlinearity correction enabled: true
Boxcar width: 0
Storing dark spectrum: false
XAxis mode: Wavelengths
Number of Pixels in Spectrum: 1516
>>>>>Begin Spectral Data<<<<<
187.304	640.32577
187.653	640.32577
188.002	610.68958
188.351	618.10366
188.7	599.03194
189.048	568.25651
189.397	619.16254
189.746	619.16254
190.094	586.3047
190.443	570.38093
190.791	576.75242
191.14	620.22135
191.488	607.51107
191.837	593.73018
192.185	600.09208
192.533	584.18248
192.881	583.12126
193.229	595.8511
193.577	619.16254
193.925	612.80824
194.273	592.66961
194.621	600.09208
194.969	603.27207
195.317	587.3657
195.664	592.66961
196.012	611.74894
196.359	603.27207
196.707	612.80824
197.054	600.09208
197.402	589.48748
197.749	612.80824
198.096	620.22135
198.443	617.04472
198.791	597.97173
199.138	579.93717
199.485	583.12126
199.832	593.73018
200.179	595.8511
200.525	600.09208
200.872	605.39171
201.219	583.12126
201.566	601.15215
201.912	630.80567
202.259	629.74755
202.605	601.15215
202.952	586.3047
203.298	569.31875
203.644	564.00676
203.991	579.93717
204.337	574.62889
204.683	567.19418
205.029	573.56701
205.375	574.62889
205.721	602.21215
206.067	632.92172
206.413	635.0375
206.759	626.57276
207.104	567.19418
207.45	602.21215
207.796	669.90963
208.141	633.97964
208.487	610.68958
208.832	607.51107
209.177	601.15215
209.523	612.80824
209.868	582.05997
210.213	601.15215
210.558	628.68935
210.903	595.8511
211.248	615.9857
211.593	599.03194
211.938	556.56681
212.283	595.8511
212.628	619.16254
212.973	610.68958
213.317	597.97173
213.662	567.19418
214.007	585.24363
214.351	609.63015
214.696	621.28009
215.04	628.68935
215.384	611.74894
215.729	615.9857
216.073	624.4559
216.417	618.10366
216.761	595.8511
217.105	621.28009
217.449	636.09528
217.793	596.91145
218.137	591.60898
218.481	641.38322
218.824	650.89731
219.168	599.03194
219.512	564.00676
219.855	559.75581
220.199	583.12126
220.542	593.73018
220.886	637.15301
221.229	640.32577
221.572	586.3047
221.916	579.93717
222.259	607.51107
222.602	622.33876
222.945	596.91145
223.288	609.63015
223.631	614.92662
223.974	577.81408
224.317	582.05997
224.659	612.80824
225.002	606.45143
225.345	571.44303
225.687	569.31875
226.03	606.45143
226.372	622.33876
226.715	618.10366
227.057	608.57064
227.4	602.21215
227.742	625.51436
228.084	611.74894
228.426	607.51107
228.768	633.97964
229.11	604.33193
229.452	596.91145
229.794	619.16254
230.136	595.8511
230.478	594.79068
230.82	606.45143
231.161	589.48748
231.503	649.84046
231.845	667.79818
232.186	660.40609
232.528	654.06749
232.869	595.8511
233.21	600.09208
233.552	594.79068
233.893	584.18248
234.234	601.15215
234.575	614.92662
234.916	627.63109
235.257	625.51436
235.598	615.9857
235.939	612.80824
236.28	614.92662
236.621	604.33193
236.961	610.68958
237.302	608.57064
237.643	569.31875
237.983	580.99861
238.324	614.92662
238.664	625.51436
239.005	604.33193
239.345	584.18248
239.685	625.51436
240.025	619.16254
240.366	582.05997
240.706	613.86746
241.046	622.33876
241.386	592.66961
241.726	596.91145
242.066	602.21215
242.405	615.9857
242.745	650.89731
243.085	623.39736
243.425	590.54827
243.764	611.74894
244.104	640.32577
244.443	630.80567
244.783	609.63015
245.122	587.3657
245.461	559.75581
245.801	591.60898
246.14	601.15215
246.479	580.99861
246.818	584.18248
247.157	646.66949
247.496	670.96526
247.835	613.86746
248.174	601.15215
248.513	600.09208
248.852	658.29348
249.19	646.66949
249.529	566.13178
249.868	585.24363
250.206	624.4559
250.545	601.15215
250.883	569.31875
251.221	603.27207
251.56	628.68935
251.898	611.74894
252.236	601.15215
252.574	605.39171
252.912	585.24363
253.25	558.69289
253.588	554.44043
253.926	603.27207
254.264	631.86373
254.602	623.39736
254.94	593.73018
255.278	560.81866
255.615	620.22135
255.953	644.55518
256.29	594.79068
256.628	553.37712
256.965	550.18675
257.303	601.15215
257.64	640.32577
257.977	615.9857
258.314	589.48748
258.652	605.39171
258.989	618.10366
259.326	606.45143
259.663	596.91145
260	590.54827
260.337	573.56701
260.673	578.87566
261.01	592.66961
261.347	600.09208
261.684	600.09208
262.02	614.92662
262.357	646.66949
262.693	631.86373
263.03	606.45143
263.366	618.10366
263.702	617.04472
264.039	600.09208
264.375	577.81408
264.711	585.24363
265.047	601.15215
265.383	604.33193
265.719	595.8511
266.055	607.51107
266.391	657.23708
266.727	625.51436
267.063	579.93717
267.399	600.09208
267.734	602.21215
268.07	570.38093
268.405	595.8511
268.741	623.39736
269.076	611.74894
269.412	608.57064
269.747	576.75242
270.082	560.81866
270.418	586.3047
270.753	600.09208
271.088	620.22135
271.423	602.21215
271.758	572.50506
272.093	583.12126
272.428	571.44303
272.763	591.60898
273.098	620.22135
273.433	617.04472
273.767	620.22135
274.102	613.86746
274.436	618.10366
274.771	627.63109
275.106	596.91145
275.44	595.8511
275.774	608.57064
276.109	589.48748
276.443	596.91145
276.777	570.38093
277.111	580.99861
277.445	645.61237
277.78	633.97964
278.114	637.15301
278.447	626.57276
278.781	579.93717
279.115	573.56701
279.449	569.31875
279.783	583.12126
280.116	588.42663
280.45	553.37712
280.784	573.56701
281.117	617.04472
281.451	619.16254
281.784	683.62787
282.117	698.38958
282.451	643.49793
282.784	589.48748
283.117	576.75242
283.45	649.84046
283.783	648.78353
284.116	597.97173
284.449	604.33193
284.782	615.9857
285.115	623.39736
285.448	606.45143
285.781	596.91145
286.114	600.09208
286.446	591.60898
286.779	655.12409
287.111	633.97964
287.444	604.33193
287.776	622.33876
288.109	644.55518
288.441	657.23708
288.773	606.45143
289.106	614.92662
289.438	612.80824
289.77	583.12126
290.102	612.80824
290.434	635.0375
290.766	691.01024
291.098	685.73743
291.43	636.09528
291.762	626.57276
292.094	595.8511
292.425	605.39171
292.757	609.63015
293.089	638.21066
293.42	625.51436
293.752	609.63015
294.083	644.55518
294.414	662.51844
294.746	666.74236
295.077	651.95411
295.408	695.22737
295.74	738.39763
296.071	676.24245
296.402	641.38322
296.733	665.68648
297.064	673.07633
297.395	669.90963
297.726	667.79818
298.056	717.3514
298.387	762.57252
298.718	804.54699
299.049	810.8359
299.379	717.3514
299.71	729.98193
300.04	787.76742
300.371	729.98193
300.701	692.06461
301.031	765.72359
301.362	795.11013
301.692	787.76742
302.022	809.78788
302.352	844.34615
302.682	856.89956
303.012	793.01248
303.342	774.12405
303.672	818.17065
304.002	879.89646
304.332	873.62681
304.662	833.87966
304.992	842.25324
305.321	871.53656
305.651	891.38654
305.98	910.1768
306.31	896.6075
306.639	927.91014
306.969	901.82735
307.298	845.39253
307.628	908.0897
307.957	951.88283
308.286	948.7572
308.615	959.17453
308.944	1027.83048
309.273	1028.86946
309.602	1003.92378
309.931	1090.1071
310.26	1066.24907
310.589	1049.64154
310.918	1098.40143
311.247	1104.6208
311.575	1061.06017
311.904	1061.06017
312.233	1159.50942
312.561	1107.73005
312.89	1078.69895
313.218	1252.5291
313.546	1357.69958
313.875	1200.87923
314.203	1090.1071
314.531	1150.19478
314.859	1207.08079
315.188	1214.31469
315.516	1197.77808
315.844	1236.00841
316.172	1297.92742
316.5	1281.42452
316.827	1252.5291
317.155	1347.39955
317.483	1413.28211
317.811	1324.73149
318.138	1278.32952
318.466	1337.09726
318.794	1322.6702
319.121	1285.55083
319.449	1350.48979
319.776	1353.57983
320.103	1399.9068
320.431	1490.3811
320.758	1457.49901
321.085	1456.47113
321.412	1495.51718
321.739	1464.69365
322.066	1431.79603
322.393	1451.33142
322.72	1449.2754
323.047	1466.74908
323.374	1597.11927
323.701	1569.4265
324.028	1503.73394
324.354	1521.19064
324.681	1478.05261
325.008	1595.06837
325.334	1611.4737
325.661	1522.21735
325.987	1608.39802
326.314	1672.95703
326.64	1611.4737
326.966	1556.08853
327.293	1583.78724
327.619	1641.19776
327.945	1666.81124
328.271	1687.29505
328.597	1715.96222
328.923	1689.3431
329.249	1659.64045
329.575	1659.64045
329.901	1607.37276
330.227	1651.44433
330.552	1758.9413
330.878	1731.31484
331.204	1684.22287
331.529	1638.12348
331.855	1692.41505
332.18	1790.64772
332.506	1682.17467
332.831	1634.02422
333.156	1780.42133
333.482	1824.38498
333.807	1775.3076
334.132	1769.17066
334.457	1809.05173
334.782	1822.34073
335.107	1802.91756
335.432	1781.44403
335.757	1753.82608
336.082	1788.60256
336.407	1793.71537
336.732	1805.98471
337.057	1878.53807
337.381	1841.75896
337.706	1843.8027
338.031	1834.60544
338.355	1798.82784
338.68	1908.1532
339.004	1896.92117
339.329	1889.7727
339.653	1893.85762
339.977	1842.78084
340.301	1898.96348
340.626	1878.53807
340.95	1920.40452
341.274	1968.37099
341.598	1887.73016
341.922	1926.52948
342.246	1962.24919
342.57	1944.90158
342.894	1986.73367
343.218	2025.48591
343.541	2044.85527
343.865	2049.95172
344.189	2084.59939
344.512	2170.13859
344.836	2137.56241
345.159	1997.95329
345.483	1986.73367
345.806	2049.95172
346.13	2108.02943
346.453	2107.01087
346.776	2093.76844
347.099	2169.12077
347.423	2117.19594
347.746	2040.77788
348.069	2120.25123
348.392	2156.90603
348.715	2050.97097
349.038	2054.02866
349.361	2143.6714
349.683	2126.36146
350.006	2069.31541
350.329	2093.76844
350.652	2248.4738
350.974	2277.95791
351.297	2231.18523
351.619	2217.96218
351.942	2269.82539
352.264	2284.05679
352.587	2222.03103
352.909	2207.78921
353.231	2172.17418
353.554	2193.54499
353.876	2254.5748
354.198	2383.60927
354.52	2417.10536
354.842	2333.84779
355.164	2345.02131
355.486	2366.34844
355.808	2342.98987
356.13	2311.49629
356.452	2366.34844
356.773	2412.03106
357.095	2358.22446
357.417	2335.87945
357.738	2334.86363
358.06	2337.91106
358.381	2285.07323
358.703	2302.35078
359.024	2398.83644
359.346	2379.54822
359.667	2403.91154
359.988	2341.97414
360.309	2337.91106
360.631	2426.2383
360.952	2496.22385
361.273	2493.18225
361.594	2447.54458
361.915	2484.05675
362.236	2451.60229
362.557	2530.68738
362.878	2580.32945
363.198	2504.33424
363.519	2508.38913
363.84	2518.52546
364.16	2495.21
364.481	2527.64708
364.802	2524.60665
365.122	2566.14915
365.443	2601.59517
365.763	2546.90042
366.083	2540.82092
366.404	2470.87368
366.724	2460.73141
367.044	2545.8872
367.364	2507.37542
367.685	2410.00126
368.005	2377.51762
368.325	2432.32637
368.645	2478.98659
368.965	2503.32048
369.284	2487.0987
369.604	2496.22385
369.924	2610.70729
370.244	2710.87069
370.564	2717.94805
370.883	2577.29103
371.203	2563.11019
371.522	2604.63266
371.842	2622.85516
372.161	2673.451
372.481	2658.27569
372.8	2700.75905
373.119	2716.93704
373.439	2662.32273
373.758	2695.70273
374.077	2702.78149
374.396	2696.71402
374.715	2687.61193
375.034	2568.17506
375.353	2520.55258
375.672	2486.08473
375.991	2367.36388
376.31	2259.65863
376.629	2193.54499
376.948	2246.44003
377.266	2391.73077
377.585	2486.08473
377.904	2555.00571
378.222	2595.51983
378.541	2660.29924
378.859	2701.77028
379.178	2727.04655
379.496	2752.31445
379.814	2697.7253
380.133	2705.81504
380.451	2748.27215
380.769	2715.92601
381.087	2641.07343
381.405	2565.13617
381.723	2577.29103
382.041	2629.94055
382.359	2704.80387
382.677	2711.88178
382.995	2756.35654
383.313	2815.95216
383.631	2702.78149
383.949	2670.41617
384.266	2716.93704
384.584	2803.83485
384.901	2840.18087
385.219	2792.72559
385.537	2796.76551
385.854	2840.18087
386.171	2754.33552
386.489	2681.54328
386.806	2724.01383
387.123	2873.48241
387.441	2927.94326
387.758	2876.50907
388.075	2818.98118
388.392	2777.57395
388.709	2790.70555
389.026	2772.52273
389.343	2791.71557
389.66	2806.86436
389.977	2805.85453
390.294	2813.93274
390.61	2906.76887
390.927	2967.25072
391.244	2937.01611
391.56	2867.4287
391.877	2833.11497
392.193	2840.18087
392.51	2843.2089
392.826	2875.5002
393.143	2881.55324
393.459	2828.0675
393.775	2788.68545
394.092	2822.01007
394.408	2830.08653
394.724	2832.10551
395.04	2859.35632
395.356	2897.69225
395.672	2997.47262
395.988	3038.75521
396.304	3026.67498
396.62	3032.71535
396.936	3100.13109
397.252	3159.44353
397.567	3154.41901
397.883	3170.49619
398.199	3076.99565
398.514	2990.42199
398.83	3110.18759
399.146	3115.2153
399.461	3078.00169
399.777	3117.22629
400.092	3061.90321
400.407	2970.27349
400.723	2893.65783
401.038	2834.12443
401.353	2834.12443
401.668	2927.94326
401.983	3000.49411
402.298	2956.16617
402.613	2899.70937
402.928	2916.85268
403.243	2889.62319
403.558	2878.52678
403.873	2942.05609
404.188	2900.71791
404.503	2846.23681
404.817	2879.53562
405.132	2921.89407
405.447	2918.86928
405.761	3039.7618
406.076	3075.98958
406.39	2976.31863
406.705	2921.89407
407.019	2977.32611
407.334	3029.69523
407.648	2990.42199
407.962	2979.34101
408.276	3024.66141
408.591	2988.40739
408.905	3003.51547
409.219	3146.37903
409.533	3099.12536
409.847	3088.06137
410.161	3093.09067
410.475	3037.7486
410.789	3075.98958
411.102	3078.00169
411.416	3132.30681
411.73	3177.52879
412.044	3151.40413
412.357	3131.30155
412.671	3013.58575
412.984	2976.31863
413.298	3000.49411
413.611	3035.73534
413.925	3097.11385
414.238	3087.05547
414.552	3069.95291
414.865	2983.37066
415.178	2947.09572
415.491	3018.62036
415.804	3080.01374
416.118	2998.4798
416.431	2869.44666
416.744	2925.92692
417.057	2954.15061
417.37	2861.3745
417.683	2815.95216
417.995	2860.36541
418.308	2844.21822
418.621	2881.55324
418.934	2937.01611
419.246	2989.4147
419.559	3093.09067
419.872	3092.08484
420.184	3088.06137
420.497	3067.94057
420.809	3129.29097
421.121	3092.08484
421.434	3001.50125
421.746	3019.62723
422.058	3050.83337
422.371	3080.01374
422.683	3002.50837
422.995	2890.63187
423.307	2872.47349
423.619	2959.1894
423.931	2925.92692
424.243	2929.95955
424.555	2961.20482
424.867	2982.36327
425.179	3038.75521
425.491	2919.87755
425.802	2898.70082
426.114	2903.74345
426.426	2772.52273
426.737	2774.54326
427.049	2918.86928
427.361	3001.50125
427.672	2946.08783
427.984	2831.09602
428.295	2833.11497
428.606	2888.61449
428.918	2897.69225
429.229	3047.81402
429.54	3026.67498
429.851	2850.27383
430.163	2726.03565
430.474	2696.71402
430.785	2833.11497
431.096	2794.74557
431.407	2735.13319
431.718	2784.64509
432.029	2796.76551
432.339	2776.56373
432.65	2803.83485
432.961	2809.89375
433.272	2801.8151
433.582	2899.70937
433.893	2850.27383
434.204	2774.54326
434.514	2802.82498
434.825	2778.58415
435.135	2757.36703
435.446	2773.533
435.756	2897.69225
436.066	2924.91873
436.377	2941.04813
436.687	2976.31863
436.997	2837.15271
437.307	2876.50907
437.617	2899.70937
437.927	2795.75555
438.237	2818.98118
438.547	2803.83485
438.857	2824.02927
439.167	2946.08783
439.477	2975.31114
439.787	2948.10361
440.097	2951.12717
440.407	2966.24311
440.716	2930.96767
441.026	2945.07991
441.336	3038.75521
441.645	2997.47262
441.955	2812.92301
442.264	2781.61468
442.574	2950.11933
442.883	2964.22783
443.192	2895.67507
443.502	2970.27349
443.811	2923.91052
444.12	2892.64919
444.429	2884.57958
444.739	2795.75555
445.048	2892.64919
445.357	2974.30364
445.666	2922.9023
445.975	2865.41069
446.284	2795.75555
446.593	2742.2083
446.901	2726.03565
447.21	2794.74557
447.519	2813.93274
447.828	2822.01007
448.136	2839.17149
448.445	2833.11497
448.754	2868.43769
449.062	2882.56203
449.371	2858.34721
449.679	2855.31979
449.988	2924.91873
450.296	3059.89064
450.605	3147.38408
450.913	3252.83307
451.221	3494.25074
451.529	3495.25069
451.838	3371.14454
452.146	3276.91302
452.454	3241.79359
452.762	3389.17401
453.07	3254.84005
453.378	3108.17641
453.686	3095.10229
453.994	3154.41901
454.302	3151.40413
454.609	2963.22017
454.917	2893.65783
455.225	2922.9023
455.533	2926.9351
455.84	2849.26459
456.148	2841.19022
456.455	2868.43769
456.763	2895.67507
457.07	3046.80755
457.378	3121.24808
457.685	2988.40739
457.993	2939.03215
458.3	2952.135
458.607	2955.1584
458.915	3010.56482
459.222	3138.33811
459.529	3159.44353
459.836	3145.37396
460.143	3076.99565
460.45	2965.23548
460.757	2945.07991
461.064	3008.55079
461.371	3090.07314
461.678	3070.95906
461.985	3097.11385
462.292	3191.59183
462.598	3285.94082
462.905	3369.14097
463.212	3460.24368
463.518	3496.25062
463.825	3516.24625
464.131	3676.99808
464.438	3737.80613
464.744	3609.14892
465.051	3519.24508
465.357	3571.20396
465.664	3564.2118
465.97	3407.19871
466.276	3396.18419
466.582	3365.13365
466.889	3296.97318
467.195	3398.18696
467.501	3529.24025
467.807	3827.42649
468.113	4004.3467
468.419	4137.25855
468.725	4349.06862
469.031	4457.74564
469.337	4628.42632
469.642	4571.23426
469.948	4391.56646
470.254	4364.88407
470.56	4244.21978
470.865	3994.41864
471.171	3857.27476
471.477	3842.35218
471.782	3758.72777
472.088	3612.14367
472.393	3713.88801
472.698	3676.00078
473.004	3536.236
473.309	3632.10539
473.614	3694.94698
473.92	3745.77702
474.225	3701.92586
474.53	3693.94995
474.835	3693.94995
475.14	3621.12717
475.445	3587.18335
475.75	3473.24839
476.055	3382.16312
476.36	3350.10411
476.665	3241.79359
476.97	3193.6006
477.275	3241.79359
477.58	3206.6562
477.885	3241.79359
478.189	3163.46289
478.494	3079.00773
478.799	3113.20426
479.103	3083.03171
479.408	3079.00773
479.712	3140.34843
480.017	3216.69729
480.321	3292.96162
480.625	3314.01968
480.93	3366.1355
481.234	3518.24548
481.538	3599.16544
481.843	3665.02956
482.147	3824.44097
482.451	3863.24292
482.755	3919.91583
483.059	4042.06145
483.363	4027.17629
483.667	4036.10774
483.971	4054.95957
484.275	4046.03033
484.579	4105.53907
484.883	4242.24028
485.187	4183.82368
485.49	4128.33873
485.794	4089.67454
486.098	3980.51713
486.401	3992.43286
486.705	4012.28821
487.009	3957.6733
487.312	3990.44704
487.616	4106.5305
487.919	3910.97042
488.222	3815.48368
488.526	3858.26948
488.829	3858.26948
489.132	3967.60626
489.436	3959.66
489.739	3920.9097
490.042	3879.15559
490.345	3905.0062
490.648	3916.93415
490.951	3893.07629
491.254	4018.2438
491.557	4105.53907
491.86	4053.96749
492.163	4089.67454
492.466	4174.90903
492.769	4346.10291
493.072	4514.01214
493.375	4559.39772
493.677	4619.55359
493.98	4655.04044
494.283	4592.93124
494.585	4493.28603
494.888	4436.02021
495.19	4357.96515
495.493	4300.61642
495.795	4238.28112
496.098	4200.65982
496.4	4191.747
496.702	4113.47014
497.005	4176.89015
497.307	4201.65007
497.609	4077.77402
497.911	4129.32987
498.213	4114.46146
498.515	4065.87167
498.818	4113.47014
499.12	4105.53907
499.422	4090.66617
499.723	4104.54764
500.025	4139.24059
500.327	4060.91182
500.629	4062.8958
500.931	4177.88069
501.233	4199.66955
501.534	4114.46146
501.836	4018.2438
502.138	4117.43537
502.439	4195.70837
502.741	4165.9934
503.042	4256.09585
503.344	4282.81095
503.645	4301.60551
503.947	4355.98822
504.248	4405.39876
504.55	4363.89569
504.851	4332.26166
505.152	4415.27772
505.453	4353.02274
505.755	4286.76804
506.056	4240.26072
506.357	4301.60551
506.658	4369.82584
506.959	4314.46261
507.26	4327.31784
507.561	4263.02279
507.862	4315.45154
508.163	4386.62586
508.464	4337.20521
508.764	4365.87245
509.065	4326.32904
509.366	4383.66137
509.667	4432.0696
509.967	4295.67082
510.268	4240.26072
510.569	4372.79077
510.869	4340.17121
511.17	4195.70837
511.47	4292.70333
511.771	4309.51779
512.071	4385.63771
512.371	4424.16791
512.672	4335.22782
512.972	4320.39602
513.272	4365.87245
513.573	4357.96515
513.873	4318.41826
514.173	4305.56174
514.473	4293.6925
514.773	4443.92093
515.073	4462.68257
515.373	4280.83234
515.673	4170.94665
515.973	4200.65982
516.273	4319.40715
516.573	4386.62586
516.873	4280.83234
517.172	4214.52228
517.472	4259.06461
517.772	4293.6925
518.072	4291.71414
518.371	4406.3867
518.671	4373.77906
518.97	4245.20952
519.27	4306.55077
519.569	4354.01125
519.869	4341.15985
520.168	4312.48472
520.468	4260.05417
520.767	4252.13735
521.066	4295.67082
521.366	4210.56181
521.665	4242.24028
521.964	4263.02279
522.263	4233.33192
522.562	4344.12572
522.861	4329.2954
523.161	4263.02279
523.46	4280.83234
523.759	4268.95971
524.057	4263.02279
524.356	4354.01125
524.655	4261.04372
524.954	4175.8996
525.253	4325.34023
525.552	4423.18015
525.85	4351.0457
526.149	4265.00181
526.448	4249.16835
526.746	4199.66955
527.045	4209.57167
527.344	4320.39602
527.642	4346.10291
527.941	4396.5068
528.239	4425.15566
528.537	4345.11432
