Data from dark_beginning_ST026791__10__1108.txt Node

Date: Mon Aug 18 22:07:46 AEST 2025
User: mathewyoussef
Spectrometer: ST02679
Trigger mode: 0
Integration Time (sec): 6.653700E-1
Scans to average: 1
Nonlinearity correction enabled: true
Boxcar width: 0
Storing dark spectrum: false
XAxis mode: Wavelengths
Number of Pixels in Spectrum: 1516
>>>>>Begin Spectral Data<<<<<
187.304	585.24363
187.653	597.97173
188.002	599.03194
188.351	602.21215
188.7	609.63015
189.048	602.21215
189.397	578.87566
189.746	557.62989
190.094	572.50506
190.443	584.18248
190.791	564.00676
191.14	558.69289
191.488	576.75242
191.837	569.31875
192.185	561.88144
192.533	576.75242
192.881	582.05997
193.229	592.66961
193.577	619.16254
193.925	583.12126
194.273	548.05945
194.621	551.25029
194.969	560.81866
195.317	564.00676
195.664	574.62889
196.012	575.69069
196.359	541.6757
196.707	565.06931
197.054	577.81408
197.402	579.93717
197.749	590.54827
198.096	568.25651
198.443	546.99569
198.791	544.86793
199.138	555.50366
199.485	540.61148
199.832	571.44303
200.179	577.81408
200.525	534.22446
200.872	550.18675
201.219	537.41832
201.566	553.37712
201.912	572.50506
202.259	569.31875
202.605	584.18248
202.952	583.12126
203.298	576.75242
203.644	602.21215
203.991	602.21215
204.337	573.56701
204.683	561.88144
205.029	556.56681
205.375	569.31875
205.721	566.13178
206.067	583.12126
206.413	588.42663
206.759	561.88144
207.104	565.06931
207.45	565.06931
207.796	553.37712
208.141	576.75242
208.487	611.74894
208.832	568.25651
209.177	537.41832
209.523	572.50506
209.868	562.94414
210.213	569.31875
210.558	577.81408
210.903	576.75242
211.248	592.66961
211.593	586.3047
211.938	565.06931
212.283	573.56701
212.628	566.13178
212.973	552.31374
213.317	541.6757
213.662	536.35378
214.007	550.18675
214.351	566.13178
214.696	579.93717
215.04	564.00676
215.384	583.12126
215.729	592.66961
216.073	565.06931
216.417	587.3657
216.761	595.8511
217.105	597.97173
217.449	594.79068
217.793	564.00676
218.137	573.56701
218.481	579.93717
218.824	590.54827
219.168	571.44303
219.512	562.94414
219.855	584.18248
220.199	577.81408
220.542	583.12126
220.886	597.97173
221.229	574.62889
221.572	554.44043
221.916	573.56701
222.259	589.48748
222.602	601.15215
222.945	586.3047
223.288	575.69069
223.631	591.60898
223.974	571.44303
224.317	542.73986
224.659	559.75581
225.002	589.48748
225.345	583.12126
225.687	577.81408
226.03	605.39171
226.372	576.75242
226.715	544.86793
227.057	559.75581
227.4	600.09208
227.742	591.60898
228.084	557.62989
228.426	548.05945
228.768	561.88144
229.11	562.94414
229.452	540.61148
229.794	580.99861
230.136	595.8511
230.478	578.87566
230.82	576.75242
231.161	582.05997
231.503	604.33193
231.845	605.39171
232.186	611.74894
232.528	586.3047
232.869	561.88144
233.21	567.19418
233.552	545.93185
233.893	546.99569
234.234	568.25651
234.575	578.87566
234.916	570.38093
235.257	568.25651
235.598	601.15215
235.939	590.54827
236.28	557.62989
236.621	570.38093
236.961	577.81408
237.302	594.79068
237.643	572.50506
237.983	588.42663
238.324	603.27207
238.664	584.18248
239.005	600.09208
239.345	578.87566
239.685	558.69289
240.025	571.44303
240.366	580.99861
240.706	586.3047
241.046	583.12126
241.386	587.3657
241.726	565.06931
242.066	553.37712
242.405	570.38093
242.745	570.38093
243.085	567.19418
243.425	557.62989
243.764	592.66961
244.104	635.0375
244.443	626.57276
244.783	592.66961
245.122	572.50506
245.461	577.81408
245.801	599.03194
246.14	592.66961
246.479	566.13178
246.818	533.15969
247.157	579.93717
247.496	610.68958
247.835	574.62889
248.174	580.99861
248.513	580.99861
248.852	606.45143
249.19	624.4559
249.529	589.48748
249.868	568.25651
250.206	596.91145
250.545	573.56701
250.883	554.44043
251.221	604.33193
251.56	583.12126
251.898	537.41832
252.236	566.13178
252.574	566.13178
252.912	540.61148
253.25	548.05945
253.588	570.38093
253.926	610.68958
254.264	597.97173
254.602	554.44043
254.94	536.35378
255.278	564.00676
255.615	569.31875
255.953	566.13178
256.29	585.24363
256.628	580.99861
256.965	571.44303
257.303	596.91145
257.64	622.33876
257.977	577.81408
258.314	559.75581
258.652	569.31875
258.989	579.93717
259.326	584.18248
259.663	557.62989
260	577.81408
260.337	576.75242
260.673	555.50366
261.01	553.37712
261.347	549.12314
261.684	559.75581
262.02	582.05997
262.357	592.66961
262.693	585.24363
263.03	600.09208
263.366	584.18248
263.702	558.69289
264.039	582.05997
264.375	608.57064
264.711	619.16254
265.047	593.73018
265.383	553.37712
265.719	552.31374
266.055	588.42663
266.391	628.68935
266.727	603.27207
267.063	572.50506
267.399	594.79068
267.734	590.54827
268.07	576.75242
268.405	569.31875
268.741	553.37712
269.076	548.05945
269.412	577.81408
269.747	583.12126
270.082	577.81408
270.418	578.87566
270.753	559.75581
271.088	548.05945
271.423	568.25651
271.758	587.3657
272.093	591.60898
272.428	588.42663
272.763	574.62889
273.098	565.06931
273.433	558.69289
273.767	577.81408
274.102	589.48748
274.436	580.99861
274.771	586.3047
275.106	605.39171
275.44	618.10366
275.774	580.99861
276.109	565.06931
276.443	576.75242
276.777	571.44303
277.111	591.60898
277.445	575.69069
277.78	552.31374
278.114	566.13178
278.447	596.91145
278.781	601.15215
279.115	582.05997
279.449	561.88144
279.783	569.31875
280.116	605.39171
280.45	567.19418
280.784	539.54717
281.117	570.38093
281.451	570.38093
281.784	610.68958
282.117	618.10366
282.451	567.19418
282.784	554.44043
283.117	587.3657
283.45	615.9857
283.783	594.79068
284.116	580.99861
284.449	580.99861
284.782	593.73018
285.115	619.16254
285.448	582.05997
285.781	540.61148
286.114	544.86793
286.446	590.54827
286.779	643.49793
287.111	595.8511
287.444	525.70404
287.776	553.37712
288.109	612.80824
288.441	579.93717
288.773	557.62989
289.106	604.33193
289.438	604.33193
289.77	560.81866
290.102	549.12314
290.434	540.61148
290.766	555.50366
291.098	567.19418
291.43	565.06931
291.762	561.88144
292.094	556.56681
292.425	564.00676
292.757	560.81866
293.089	580.99861
293.42	574.62889
293.752	570.38093
294.083	593.73018
294.414	587.3657
294.746	584.18248
295.077	591.60898
295.408	584.18248
295.74	589.48748
296.071	601.15215
296.402	565.06931
296.733	566.13178
297.064	605.39171
297.395	591.60898
297.726	577.81408
298.056	595.8511
298.387	601.15215
298.718	605.39171
299.049	576.75242
299.379	556.56681
299.71	570.38093
300.04	559.75581
300.371	569.31875
300.701	587.3657
301.031	595.8511
301.362	578.87566
301.692	582.05997
302.022	591.60898
302.352	593.73018
302.682	592.66961
303.012	574.62889
303.342	588.42663
303.672	579.93717
304.002	575.69069
304.332	557.62989
304.662	554.44043
304.992	573.56701
305.321	562.94414
305.651	569.31875
305.98	571.44303
306.31	558.69289
306.639	582.05997
306.969	601.15215
307.298	580.99861
307.628	555.50366
307.957	524.63863
308.286	562.94414
308.615	601.15215
308.944	610.68958
309.273	589.48748
309.602	574.62889
309.931	599.03194
310.26	599.03194
310.589	587.3657
310.918	576.75242
311.247	596.91145
311.575	589.48748
311.904	574.62889
312.233	590.54827
312.561	585.24363
312.89	579.93717
313.218	589.48748
313.546	588.42663
313.875	590.54827
314.203	593.73018
314.531	556.56681
314.859	558.69289
315.188	605.39171
315.516	597.97173
315.844	595.8511
316.172	615.9857
316.5	613.86746
316.827	600.09208
317.155	572.50506
317.483	568.25651
317.811	572.50506
318.138	550.18675
318.466	565.06931
318.794	548.05945
319.121	559.75581
319.449	613.86746
319.776	594.79068
320.103	584.18248
320.431	590.54827
320.758	580.99861
321.085	605.39171
321.412	586.3047
321.739	593.73018
322.066	607.51107
322.393	566.13178
322.72	579.93717
323.047	576.75242
323.374	602.21215
323.701	605.39171
324.028	550.18675
324.354	562.94414
324.681	584.18248
325.008	594.79068
325.334	573.56701
325.661	575.69069
325.987	599.03194
326.314	591.60898
326.64	579.93717
326.966	577.81408
327.293	584.18248
327.619	577.81408
327.945	582.05997
328.271	580.99861
328.597	582.05997
328.923	567.19418
329.249	553.37712
329.575	582.05997
329.901	589.48748
330.227	584.18248
330.552	583.12126
330.878	595.8511
331.204	586.3047
331.529	585.24363
331.855	609.63015
332.18	614.92662
332.506	583.12126
332.831	558.69289
333.156	584.18248
333.482	590.54827
333.807	612.80824
334.132	622.33876
334.457	593.73018
334.782	568.25651
335.107	552.31374
335.432	550.18675
335.757	580.99861
336.082	602.21215
336.407	580.99861
336.732	570.38093
337.057	589.48748
337.381	577.81408
337.706	560.81866
338.031	593.73018
338.355	597.97173
338.68	587.3657
339.004	607.51107
339.329	617.04472
339.653	570.38093
339.977	526.76937
340.301	564.00676
340.626	572.50506
340.95	560.81866
341.274	567.19418
341.598	565.06931
341.922	569.31875
342.246	549.12314
342.57	570.38093
342.894	587.3657
343.218	559.75581
343.541	559.75581
343.865	553.37712
344.189	561.88144
344.512	582.05997
344.836	591.60898
345.159	592.66961
345.483	579.93717
345.806	555.50366
346.13	575.69069
346.453	605.39171
346.776	599.03194
347.099	574.62889
347.423	573.56701
347.746	578.87566
348.069	585.24363
348.392	582.05997
348.715	562.94414
349.038	576.75242
349.361	597.97173
349.683	609.63015
350.006	599.03194
350.329	590.54827
350.652	599.03194
350.974	612.80824
351.297	579.93717
351.619	556.56681
351.942	588.42663
352.264	597.97173
352.587	570.38093
352.909	560.81866
353.231	582.05997
353.554	582.05997
353.876	587.3657
354.198	595.8511
354.52	601.15215
354.842	599.03194
355.164	601.15215
355.486	610.68958
355.808	579.93717
356.13	557.62989
356.452	622.33876
356.773	638.21066
357.095	567.19418
357.417	564.00676
357.738	571.44303
358.06	577.81408
358.381	602.21215
358.703	603.27207
359.024	594.79068
359.346	557.62989
359.667	546.99569
359.988	574.62889
360.309	582.05997
360.631	591.60898
360.952	599.03194
361.273	582.05997
361.594	594.79068
361.915	595.8511
362.236	583.12126
362.557	593.73018
362.878	607.51107
363.198	593.73018
363.519	585.24363
363.84	584.18248
364.16	552.31374
364.481	582.05997
364.802	594.79068
365.122	587.3657
365.443	611.74894
365.763	586.3047
366.083	569.31875
366.404	570.38093
366.724	560.81866
367.044	577.81408
367.364	573.56701
367.685	567.19418
368.005	573.56701
368.325	572.50506
368.645	574.62889
368.965	557.62989
369.284	553.37712
369.604	560.81866
369.924	570.38093
370.244	600.09208
370.564	597.97173
370.883	580.99861
371.203	615.9857
371.522	614.92662
371.842	610.68958
372.161	611.74894
372.481	584.18248
372.8	594.79068
373.119	596.91145
373.439	582.05997
373.758	578.87566
374.077	604.33193
374.396	614.92662
374.715	601.15215
375.034	587.3657
375.353	583.12126
375.672	573.56701
375.991	584.18248
376.31	604.33193
376.629	593.73018
376.948	567.19418
377.266	570.38093
377.585	604.33193
377.904	602.21215
378.222	579.93717
378.541	577.81408
378.859	566.13178
379.178	566.13178
379.496	567.19418
379.814	571.44303
380.133	574.62889
380.451	575.69069
380.769	575.69069
381.087	565.06931
381.405	577.81408
381.723	578.87566
382.041	561.88144
382.359	573.56701
382.677	608.57064
382.995	602.21215
383.313	589.48748
383.631	579.93717
383.949	584.18248
384.266	558.69289
384.584	545.93185
384.901	617.04472
385.219	627.63109
385.537	609.63015
385.854	608.57064
386.171	593.73018
386.489	589.48748
386.806	599.03194
387.123	627.63109
387.441	609.63015
387.758	578.87566
388.075	562.94414
388.392	567.19418
388.709	582.05997
389.026	575.69069
389.343	587.3657
389.66	596.91145
389.977	589.48748
390.294	594.79068
390.61	584.18248
390.927	604.33193
391.244	610.68958
391.56	597.97173
391.877	582.05997
392.193	579.93717
392.51	609.63015
392.826	568.25651
393.143	558.69289
393.459	594.79068
393.775	585.24363
394.092	569.31875
394.408	570.38093
394.724	550.18675
395.04	543.80393
395.356	578.87566
395.672	591.60898
395.988	587.3657
396.304	589.48748
396.62	585.24363
396.936	602.21215
397.252	608.57064
397.567	570.38093
397.883	566.13178
398.199	565.06931
398.514	560.81866
398.83	601.15215
399.146	623.39736
399.461	604.33193
399.777	587.3657
400.092	558.69289
400.407	551.25029
400.723	575.69069
401.038	573.56701
401.353	576.75242
401.668	605.39171
401.983	606.45143
402.298	593.73018
402.613	594.79068
402.928	568.25651
403.243	576.75242
403.558	575.69069
403.873	567.19418
404.188	568.25651
404.503	574.62889
404.817	580.99861
405.132	538.48278
405.447	544.86793
405.761	591.60898
406.076	633.97964
406.39	617.04472
406.705	578.87566
407.019	596.91145
407.334	572.50506
407.648	540.61148
407.962	544.86793
408.276	551.25029
408.591	548.05945
408.905	567.19418
409.219	595.8511
409.533	579.93717
409.847	560.81866
410.161	569.31875
410.475	593.73018
410.789	579.93717
411.102	570.38093
411.416	600.09208
411.73	584.18248
412.044	579.93717
412.357	570.38093
412.671	553.37712
412.984	592.66961
413.298	606.45143
413.611	608.57064
413.925	604.33193
414.238	592.66961
414.552	573.56701
414.865	542.73986
415.178	551.25029
415.491	560.81866
415.804	588.42663
416.118	580.99861
416.431	567.19418
416.744	608.57064
417.057	604.33193
417.37	569.31875
417.683	552.31374
417.995	558.69289
418.308	578.87566
418.621	562.94414
418.934	548.05945
419.246	586.3047
419.559	608.57064
419.872	594.79068
420.184	567.19418
420.497	539.54717
420.809	574.62889
421.121	608.57064
421.434	595.8511
421.746	585.24363
422.058	566.13178
422.371	558.69289
422.683	560.81866
422.995	559.75581
423.307	557.62989
423.619	567.19418
423.931	578.87566
424.243	574.62889
424.555	566.13178
424.867	566.13178
425.179	610.68958
425.491	617.04472
425.802	596.91145
426.114	606.45143
426.426	588.42663
426.737	566.13178
427.049	584.18248
427.361	594.79068
427.672	579.93717
427.984	583.12126
428.295	606.45143
428.606	584.18248
428.918	556.56681
429.229	647.72654
429.54	631.86373
429.851	554.44043
430.163	573.56701
430.474	575.69069
430.785	589.48748
431.096	591.60898
431.407	567.19418
431.718	559.75581
432.029	585.24363
432.339	590.54827
432.65	606.45143
432.961	612.80824
433.272	576.75242
433.582	567.19418
433.893	574.62889
434.204	564.00676
434.514	548.05945
434.825	564.00676
435.135	577.81408
435.446	576.75242
435.756	611.74894
436.066	609.63015
436.377	614.92662
436.687	595.8511
436.997	579.93717
437.307	595.8511
437.617	573.56701
437.927	575.69069
438.237	589.48748
438.547	593.73018
438.857	567.19418
439.167	554.44043
439.477	556.56681
439.787	553.37712
440.097	557.62989
440.407	582.05997
440.716	614.92662
441.026	595.8511
441.336	608.57064
441.645	614.92662
441.955	593.73018
442.264	613.86746
442.574	608.57064
442.883	592.66961
443.192	588.42663
443.502	582.05997
443.811	578.87566
444.12	601.15215
444.429	605.39171
444.739	588.42663
445.048	584.18248
445.357	593.73018
445.666	601.15215
445.975	594.79068
446.284	562.94414
446.593	551.25029
446.901	558.69289
447.21	574.62889
447.519	573.56701
447.828	568.25651
448.136	558.69289
448.445	566.13178
448.754	584.18248
449.062	576.75242
449.371	566.13178
449.679	562.94414
449.988	557.62989
450.296	564.00676
450.605	570.38093
450.913	592.66961
451.221	653.01083
451.529	653.01083
451.838	624.4559
452.146	593.73018
452.454	588.42663
452.762	606.45143
453.07	570.38093
453.378	541.6757
453.686	546.99569
453.994	589.48748
454.302	603.27207
454.609	571.44303
454.917	595.8511
455.225	628.68935
455.533	602.21215
455.84	560.81866
456.148	559.75581
456.455	568.25651
456.763	562.94414
457.07	570.38093
457.378	597.97173
457.685	582.05997
457.993	562.94414
458.3	546.99569
458.607	567.19418
458.915	584.18248
459.222	574.62889
459.529	593.73018
459.836	573.56701
460.143	569.31875
460.45	586.3047
460.757	573.56701
461.064	582.05997
461.371	589.48748
461.678	596.91145
461.985	595.8511
462.292	610.68958
462.598	608.57064
462.905	582.05997
463.212	586.3047
463.518	565.06931
463.825	549.12314
464.131	569.31875
464.438	597.97173
464.744	578.87566
465.051	562.94414
465.357	580.99861
465.664	595.8511
465.97	593.73018
466.276	570.38093
466.582	537.41832
466.889	537.41832
467.195	573.56701
467.501	579.93717
467.807	586.3047
468.113	606.45143
468.419	576.75242
468.725	577.81408
469.031	589.48748
469.337	615.9857
469.642	615.9857
469.948	556.56681
470.254	558.69289
470.56	578.87566
470.865	574.62889
471.171	562.94414
471.477	592.66961
471.782	594.79068
472.088	560.81866
472.393	591.60898
472.698	594.79068
473.004	569.31875
473.309	575.69069
473.614	545.93185
473.92	546.99569
474.225	533.15969
474.53	531.0299
474.835	562.94414
475.14	576.75242
475.445	605.39171
475.75	624.4559
476.055	618.10366
476.36	588.42663
476.665	570.38093
476.97	579.93717
477.275	596.91145
477.58	594.79068
477.885	596.91145
478.189	571.44303
478.494	566.13178
478.799	582.05997
479.103	586.3047
479.408	557.62989
479.712	536.35378
480.017	575.69069
480.321	591.60898
480.625	582.05997
480.93	594.79068
481.234	580.99861
481.538	560.81866
481.843	588.42663
482.147	617.04472
482.451	600.09208
482.755	557.62989
483.059	572.50506
483.363	594.79068
483.667	569.31875
483.971	545.93185
484.275	557.62989
484.579	585.24363
484.883	590.54827
485.187	582.05997
485.49	557.62989
485.794	544.86793
486.098	558.69289
486.401	559.75581
486.705	566.13178
487.009	554.44043
487.312	571.44303
487.616	602.21215
487.919	575.69069
488.222	561.88144
488.526	560.81866
488.829	570.38093
489.132	587.3657
489.436	572.50506
489.739	567.19418
490.042	571.44303
490.345	590.54827
490.648	589.48748
490.951	608.57064
491.254	625.51436
491.557	571.44303
491.86	540.61148
492.163	557.62989
492.466	575.69069
492.769	577.81408
493.072	599.03194
493.375	574.62889
493.677	569.31875
493.98	591.60898
494.283	590.54827
494.585	590.54827
494.888	611.74894
495.19	625.51436
495.493	615.9857
495.795	604.33193
496.098	593.73018
496.4	587.3657
496.702	561.88144
497.005	575.69069
497.307	618.10366
497.609	606.45143
497.911	575.69069
498.213	580.99861
498.515	585.24363
498.818	597.97173
499.12	575.69069
499.422	565.06931
499.723	591.60898
500.025	582.05997
500.327	585.24363
500.629	602.21215
500.931	586.3047
501.233	582.05997
501.534	597.97173
501.836	578.87566
502.138	566.13178
502.439	591.60898
502.741	597.97173
503.042	560.81866
503.344	565.06931
503.645	606.45143
503.947	578.87566
504.248	539.54717
504.55	574.62889
504.851	587.3657
505.152	566.13178
505.453	560.81866
505.755	580.99861
506.056	600.09208
506.357	599.03194
506.658	592.66961
506.959	576.75242
507.26	595.8511
507.561	604.33193
507.862	586.3047
508.163	556.56681
508.464	553.37712
508.764	585.24363
509.065	586.3047
509.366	590.54827
509.667	589.48748
509.967	572.50506
510.268	573.56701
510.569	560.81866
510.869	551.25029
511.17	544.86793
511.47	562.94414
511.771	593.73018
512.071	602.21215
512.371	597.97173
512.672	602.21215
512.972	585.24363
513.272	575.69069
513.573	574.62889
513.873	541.6757
514.173	545.93185
514.473	561.88144
514.773	579.93717
515.073	570.38093
515.373	554.44043
515.673	558.69289
515.973	555.50366
516.273	568.25651
516.573	578.87566
516.873	579.93717
517.172	588.42663
517.472	576.75242
517.772	569.31875
518.072	583.12126
518.371	605.39171
518.671	594.79068
518.97	556.56681
519.27	557.62989
519.569	592.66961
519.869	572.50506
520.168	528.89979
520.468	552.31374
520.767	574.62889
521.066	564.00676
521.366	571.44303
521.665	583.12126
521.964	579.93717
522.263	577.81408
522.562	587.3657
522.861	606.45143
523.161	595.8511
523.46	568.25651
523.759	569.31875
524.057	595.8511
524.356	606.45143
524.655	557.62989
524.954	540.61148
525.253	574.62889
525.552	585.24363
525.85	585.24363
526.149	574.62889
526.448	556.56681
526.746	552.31374
527.045	565.06931
527.344	595.8511
527.642	628.68935
527.941	618.10366
528.239	585.24363
528.537	612.80824
528.836	628.68935
529.134	590.54827
529.432	577.81408
529.731	573.56701
530.029	573.56701
530.327	583.12126
530.625	594.79068
530.923	580.99861
531.221	576.75242
531.52	559.75581
531.818	551.25029
532.116	567.19418
532.413	573.56701
532.711	589.48748
533.009	556.56681
533.307	532.09483
533.605	557.62989
533.903	595.8511
534.2	603.27207
534.498	595.8511
534.796	590.54827
535.093	597.97173
535.391	610.68958
535.689	607.51107
535.986	593.73018
536.284	590.54827
536.581	592.66961
536.878	588.42663
537.176	576.75242
537.473	578.87566
537.77	611.74894
538.068	596.91145
538.365	600.09208
538.662	619.16254
538.959	596.91145
539.256	559.75581
539.554	577.81408
539.851	612.80824
