Data from dark_beginning_ST026791__199__1297.txt Node

Date: Mon Aug 18 22:12:02 AEST 2025
User: mathewyoussef
Spectrometer: ST02679
Trigger mode: 0
Integration Time (sec): 6.653700E-1
Scans to average: 1
Nonlinearity correction enabled: true
Boxcar width: 0
Storing dark spectrum: false
XAxis mode: Wavelengths
Number of Pixels in Spectrum: 1516
>>>>>Begin Spectral Data<<<<<
187.304	558.69289
187.653	586.3047
188.002	591.60898
188.351	585.24363
188.7	590.54827
189.048	562.94414
189.397	574.62889
189.746	580.99861
190.094	580.99861
190.443	604.33193
190.791	575.69069
191.14	560.81866
191.488	566.13178
191.837	556.56681
192.185	577.81408
192.533	596.91145
192.881	582.05997
193.229	584.18248
193.577	609.63015
193.925	603.27207
194.273	565.06931
194.621	571.44303
194.969	586.3047
195.317	605.39171
195.664	610.68958
196.012	573.56701
196.359	557.62989
196.707	569.31875
197.054	561.88144
197.402	567.19418
197.749	559.75581
198.096	543.80393
198.443	566.13178
198.791	567.19418
199.138	572.50506
199.485	578.87566
199.832	561.88144
200.179	555.50366
200.525	572.50506
200.872	594.79068
201.219	608.57064
201.566	614.92662
201.912	582.05997
202.259	545.93185
202.605	562.94414
202.952	588.42663
203.298	577.81408
203.644	574.62889
203.991	603.27207
204.337	600.09208
204.683	579.93717
205.029	571.44303
205.375	569.31875
205.721	602.21215
206.067	596.91145
206.413	570.38093
206.759	580.99861
207.104	559.75581
207.45	565.06931
207.796	595.8511
208.141	582.05997
208.487	561.88144
208.832	565.06931
209.177	569.31875
209.523	557.62989
209.868	564.00676
210.213	558.69289
210.558	567.19418
210.903	604.33193
211.248	586.3047
211.593	575.69069
211.938	594.79068
212.283	625.51436
212.628	593.73018
212.973	544.86793
213.317	561.88144
213.662	594.79068
214.007	600.09208
214.351	566.13178
214.696	569.31875
215.04	577.81408
215.384	573.56701
215.729	573.56701
216.073	561.88144
216.417	584.18248
216.761	590.54827
217.105	572.50506
217.449	570.38093
217.793	572.50506
218.137	561.88144
218.481	555.50366
218.824	582.05997
219.168	561.88144
219.512	531.0299
219.855	572.50506
220.199	565.06931
220.542	537.41832
220.886	574.62889
221.229	604.33193
221.572	583.12126
221.916	566.13178
222.259	573.56701
222.602	562.94414
222.945	574.62889
223.288	582.05997
223.631	569.31875
223.974	579.93717
224.317	585.24363
224.659	582.05997
225.002	580.99861
225.345	565.06931
225.687	566.13178
226.03	595.8511
226.372	580.99861
226.715	557.62989
227.057	565.06931
227.4	574.62889
227.742	587.3657
228.084	567.19418
228.426	552.31374
228.768	580.99861
229.11	583.12126
229.452	561.88144
229.794	588.42663
230.136	601.15215
230.478	572.50506
230.82	580.99861
231.161	612.80824
231.503	631.86373
231.845	611.74894
232.186	608.57064
232.528	591.60898
232.869	554.44043
233.21	562.94414
233.552	579.93717
233.893	574.62889
234.234	577.81408
234.575	590.54827
234.916	593.73018
235.257	582.05997
235.598	556.56681
235.939	559.75581
236.28	585.24363
236.621	585.24363
236.961	623.39736
237.302	629.74755
237.643	576.75242
237.983	575.69069
238.324	565.06931
238.664	593.73018
239.005	593.73018
239.345	548.05945
239.685	559.75581
240.025	569.31875
240.366	571.44303
240.706	593.73018
241.046	604.33193
241.386	587.3657
241.726	560.81866
242.066	556.56681
242.405	575.69069
242.745	613.86746
243.085	624.4559
243.425	583.12126
243.764	583.12126
244.104	596.91145
244.443	588.42663
244.783	603.27207
245.122	571.44303
245.461	560.81866
245.801	600.09208
246.14	574.62889
246.479	544.86793
246.818	554.44043
247.157	607.51107
247.496	611.74894
247.835	597.97173
248.174	607.51107
248.513	573.56701
248.852	573.56701
249.19	577.81408
249.529	572.50506
249.868	588.42663
250.206	569.31875
250.545	555.50366
250.883	556.56681
251.221	542.73986
251.56	548.05945
251.898	549.12314
252.236	549.12314
252.574	546.99569
252.912	531.0299
253.25	540.61148
253.588	585.24363
253.926	612.80824
254.264	588.42663
254.602	565.06931
254.94	562.94414
255.278	549.12314
255.615	526.76937
255.953	554.44043
256.29	575.69069
256.628	537.41832
256.965	524.63863
257.303	556.56681
257.64	604.33193
257.977	592.66961
258.314	591.60898
258.652	597.97173
258.989	593.73018
259.326	588.42663
259.663	580.99861
260	599.03194
260.337	557.62989
260.673	555.50366
261.01	600.09208
261.347	591.60898
261.684	565.06931
262.02	559.75581
262.357	532.09483
262.693	527.83462
263.03	569.31875
263.366	601.15215
263.702	576.75242
264.039	555.50366
264.375	561.88144
264.711	560.81866
265.047	574.62889
265.383	555.50366
265.719	568.25651
266.055	609.63015
266.391	612.80824
266.727	590.54827
267.063	560.81866
267.399	570.38093
267.734	602.21215
268.07	591.60898
268.405	578.87566
268.741	585.24363
269.076	576.75242
269.412	561.88144
269.747	564.00676
270.082	584.18248
270.418	589.48748
270.753	597.97173
271.088	603.27207
271.423	596.91145
271.758	580.99861
272.093	574.62889
272.428	594.79068
272.763	615.9857
273.098	585.24363
273.433	566.13178
273.767	585.24363
274.102	585.24363
274.436	559.75581
274.771	562.94414
275.106	575.69069
275.44	578.87566
275.774	593.73018
276.109	580.99861
276.443	576.75242
276.777	574.62889
277.111	575.69069
277.445	564.00676
277.78	574.62889
278.114	584.18248
278.447	554.44043
278.781	564.00676
279.115	595.8511
279.449	565.06931
279.783	578.87566
280.116	589.48748
280.45	568.25651
280.784	590.54827
281.117	596.91145
281.451	587.3657
281.784	602.21215
282.117	602.21215
282.451	568.25651
282.784	573.56701
283.117	564.00676
283.45	579.93717
283.783	605.39171
284.116	595.8511
284.449	612.80824
284.782	623.39736
285.115	628.68935
285.448	623.39736
285.781	582.05997
286.114	552.31374
286.446	577.81408
286.779	635.0375
287.111	578.87566
287.444	522.50757
287.776	579.93717
288.109	603.27207
288.441	568.25651
288.773	553.37712
289.106	596.91145
289.438	604.33193
289.77	599.03194
290.102	587.3657
290.434	558.69289
290.766	617.04472
291.098	630.80567
291.43	592.66961
291.762	582.05997
292.094	555.50366
292.425	529.96488
292.757	524.63863
293.089	540.61148
293.42	562.94414
293.752	560.81866
294.083	546.99569
294.414	567.19418
294.746	582.05997
295.077	590.54827
295.408	600.09208
295.74	620.22135
296.071	615.9857
296.402	572.50506
296.733	565.06931
297.064	552.31374
297.395	533.15969
297.726	551.25029
298.056	572.50506
298.387	580.99861
298.718	601.15215
299.049	612.80824
299.379	599.03194
299.71	577.81408
300.04	566.13178
300.371	554.44043
300.701	554.44043
301.031	615.9857
301.362	611.74894
301.692	594.79068
302.022	595.8511
302.352	559.75581
302.682	544.86793
303.012	534.22446
303.342	567.19418
303.672	599.03194
304.002	569.31875
304.332	553.37712
304.662	573.56701
304.992	559.75581
305.321	538.48278
305.651	561.88144
305.98	594.79068
306.31	576.75242
306.639	559.75581
306.969	559.75581
307.298	572.50506
307.628	591.60898
307.957	573.56701
308.286	573.56701
308.615	595.8511
308.944	589.48748
309.273	558.69289
309.602	594.79068
309.931	625.51436
310.26	585.24363
310.589	571.44303
310.918	573.56701
311.247	592.66961
311.575	601.15215
311.904	561.88144
312.233	558.69289
312.561	576.75242
312.89	584.18248
313.218	614.92662
313.546	625.51436
313.875	593.73018
314.203	572.50506
314.531	554.44043
314.859	561.88144
315.188	575.69069
315.516	569.31875
315.844	574.62889
316.172	597.97173
316.5	597.97173
316.827	566.13178
317.155	556.56681
317.483	573.56701
317.811	583.12126
318.138	556.56681
318.466	546.99569
318.794	572.50506
319.121	588.42663
319.449	593.73018
319.776	572.50506
320.103	566.13178
320.431	607.51107
320.758	607.51107
321.085	584.18248
321.412	577.81408
321.739	600.09208
322.066	605.39171
322.393	557.62989
322.72	562.94414
323.047	589.48748
323.374	604.33193
323.701	580.99861
324.028	567.19418
324.354	586.3047
324.681	568.25651
325.008	594.79068
325.334	591.60898
325.661	590.54827
325.987	622.33876
326.314	574.62889
326.64	560.81866
326.966	595.8511
327.293	593.73018
327.619	579.93717
327.945	577.81408
328.271	589.48748
328.597	604.33193
328.923	586.3047
329.249	593.73018
329.575	603.27207
329.901	597.97173
330.227	600.09208
330.552	589.48748
330.878	561.88144
331.204	562.94414
331.529	583.12126
331.855	587.3657
332.18	607.51107
332.506	580.99861
332.831	552.31374
333.156	589.48748
333.482	584.18248
333.807	568.25651
334.132	599.03194
334.457	604.33193
334.782	588.42663
335.107	592.66961
335.432	577.81408
335.757	578.87566
336.082	586.3047
336.407	588.42663
336.732	604.33193
337.057	593.73018
337.381	590.54827
337.706	584.18248
338.031	577.81408
338.355	575.69069
338.68	584.18248
339.004	566.13178
339.329	567.19418
339.653	588.42663
339.977	579.93717
340.301	582.05997
340.626	583.12126
340.95	579.93717
341.274	567.19418
341.598	590.54827
341.922	605.39171
342.246	569.31875
342.57	595.8511
342.894	601.15215
343.218	574.62889
343.541	612.80824
343.865	618.10366
344.189	609.63015
344.512	629.74755
344.836	600.09208
345.159	561.88144
345.483	578.87566
345.806	560.81866
346.13	546.99569
346.453	568.25651
346.776	573.56701
347.099	601.15215
347.423	600.09208
347.746	557.62989
348.069	571.44303
348.392	607.51107
348.715	583.12126
349.038	562.94414
349.361	561.88144
349.683	576.75242
350.006	586.3047
350.329	551.25029
350.652	564.00676
350.974	589.48748
351.297	574.62889
351.619	566.13178
351.942	573.56701
352.264	594.79068
352.587	593.73018
352.909	576.75242
353.231	583.12126
353.554	573.56701
353.876	557.62989
354.198	570.38093
354.52	572.50506
354.842	582.05997
355.164	597.97173
355.486	611.74894
355.808	593.73018
356.13	569.31875
356.452	596.91145
356.773	592.66961
357.095	578.87566
357.417	588.42663
357.738	580.99861
358.06	569.31875
358.381	529.96488
358.703	546.99569
359.024	591.60898
359.346	576.75242
359.667	577.81408
359.988	569.31875
360.309	570.38093
360.631	577.81408
360.952	575.69069
361.273	575.69069
361.594	586.3047
361.915	571.44303
362.236	566.13178
362.557	592.66961
362.878	592.66961
363.198	575.69069
363.519	570.38093
363.84	593.73018
364.16	591.60898
364.481	582.05997
364.802	574.62889
365.122	595.8511
365.443	620.22135
365.763	595.8511
366.083	589.48748
366.404	594.79068
366.724	571.44303
367.044	564.00676
367.364	576.75242
367.685	584.18248
368.005	583.12126
368.325	583.12126
368.645	592.66961
368.965	588.42663
369.284	557.62989
369.604	555.50366
369.924	589.48748
370.244	619.16254
370.564	614.92662
370.883	588.42663
371.203	586.3047
371.522	560.81866
371.842	565.06931
372.161	585.24363
372.481	559.75581
372.8	568.25651
373.119	596.91145
373.439	565.06931
373.758	545.93185
374.077	583.12126
374.396	585.24363
374.715	591.60898
375.034	595.8511
375.353	583.12126
375.672	582.05997
375.991	608.57064
376.31	615.9857
376.629	602.21215
376.948	591.60898
377.266	574.62889
377.585	608.57064
377.904	618.10366
378.222	575.69069
378.541	571.44303
378.859	576.75242
379.178	590.54827
379.496	614.92662
379.814	596.91145
380.133	570.38093
380.451	562.94414
380.769	573.56701
381.087	569.31875
381.405	557.62989
381.723	560.81866
382.041	574.62889
382.359	599.03194
382.677	602.21215
382.995	596.91145
383.313	595.8511
383.631	579.93717
383.949	569.31875
384.266	561.88144
384.584	576.75242
384.901	573.56701
385.219	562.94414
385.537	579.93717
385.854	587.3657
386.171	584.18248
386.489	572.50506
386.806	594.79068
387.123	609.63015
387.441	575.69069
387.758	572.50506
388.075	567.19418
388.392	564.00676
388.709	567.19418
389.026	575.69069
389.343	603.27207
389.66	584.18248
389.977	585.24363
390.294	584.18248
390.61	578.87566
390.927	572.50506
391.244	561.88144
391.56	582.05997
391.877	575.69069
392.193	557.62989
392.51	553.37712
392.826	578.87566
393.143	615.9857
393.459	579.93717
393.775	551.25029
394.092	562.94414
394.408	557.62989
394.724	551.25029
395.04	567.19418
395.356	564.00676
395.672	554.44043
395.988	585.24363
396.304	587.3657
396.62	565.06931
396.936	568.25651
397.252	558.69289
397.567	567.19418
397.883	593.73018
398.199	592.66961
398.514	566.13178
398.83	550.18675
399.146	596.91145
399.461	617.04472
399.777	597.97173
400.092	577.81408
400.407	577.81408
400.723	595.8511
401.038	580.99861
401.353	539.54717
401.668	548.05945
401.983	588.42663
402.298	603.27207
402.613	595.8511
402.928	584.18248
403.243	576.75242
403.558	585.24363
403.873	586.3047
404.188	574.62889
404.503	578.87566
404.817	579.93717
405.132	558.69289
405.447	565.06931
405.761	592.66961
406.076	567.19418
406.39	557.62989
406.705	576.75242
407.019	578.87566
407.334	579.93717
407.648	567.19418
407.962	546.99569
408.276	573.56701
408.591	587.3657
408.905	600.09208
409.219	603.27207
409.533	591.60898
409.847	583.12126
410.161	550.18675
410.475	557.62989
410.789	589.48748
411.102	595.8511
411.416	602.21215
411.73	620.22135
412.044	619.16254
412.357	618.10366
412.671	592.66961
412.984	557.62989
413.298	561.88144
413.611	585.24363
413.925	569.31875
414.238	561.88144
414.552	606.45143
414.865	602.21215
415.178	545.93185
415.491	554.44043
415.804	620.22135
416.118	623.39736
416.431	597.97173
416.744	597.97173
417.057	588.42663
417.37	588.42663
417.683	573.56701
417.995	578.87566
418.308	602.21215
418.621	580.99861
418.934	537.41832
419.246	543.80393
419.559	589.48748
419.872	587.3657
420.184	552.31374
420.497	552.31374
420.809	573.56701
421.121	588.42663
421.434	580.99861
421.746	555.50366
422.058	574.62889
422.371	594.79068
422.683	584.18248
422.995	568.25651
423.307	559.75581
423.619	579.93717
423.931	596.91145
424.243	579.93717
424.555	541.6757
424.867	572.50506
425.179	624.4559
425.491	601.15215
425.802	564.00676
426.114	561.88144
426.426	576.75242
426.737	574.62889
427.049	582.05997
427.361	602.21215
427.672	619.16254
427.984	613.86746
428.295	601.15215
428.606	583.12126
428.918	566.13178
429.229	593.73018
429.54	611.74894
429.851	597.97173
430.163	569.31875
430.474	572.50506
430.785	575.69069
431.096	582.05997
431.407	607.51107
431.718	583.12126
432.029	585.24363
432.339	591.60898
432.65	587.3657
432.961	602.21215
433.272	610.68958
433.582	599.03194
433.893	545.93185
434.204	548.05945
434.514	554.44043
434.825	557.62989
435.135	573.56701
435.446	583.12126
435.756	586.3047
436.066	583.12126
436.377	610.68958
436.687	572.50506
436.997	540.61148
437.307	576.75242
437.617	582.05997
437.927	583.12126
438.237	602.21215
438.547	604.33193
438.857	596.91145
439.167	571.44303
439.477	546.99569
439.787	579.93717
440.097	587.3657
440.407	574.62889
440.716	566.13178
441.026	567.19418
441.336	587.3657
441.645	580.99861
441.955	578.87566
442.264	595.8511
442.574	621.28009
442.883	624.4559
443.192	592.66961
443.502	612.80824
443.811	631.86373
444.12	582.05997
444.429	574.62889
444.739	572.50506
445.048	576.75242
445.357	603.27207
445.666	592.66961
445.975	553.37712
446.284	529.96488
446.593	553.37712
446.901	567.19418
447.21	568.25651
447.519	589.48748
447.828	585.24363
448.136	580.99861
448.445	558.69289
448.754	533.15969
449.062	567.19418
449.371	574.62889
449.679	565.06931
449.988	576.75242
450.296	585.24363
450.605	552.31374
450.913	552.31374
451.221	624.4559
451.529	609.63015
451.838	574.62889
452.146	600.09208
452.454	569.31875
452.762	549.12314
453.07	525.70404
453.378	515.04633
453.686	550.18675
453.994	590.54827
454.302	591.60898
454.609	541.6757
454.917	553.37712
455.225	551.25029
455.533	532.09483
455.84	553.37712
456.148	578.87566
456.455	610.68958
456.763	605.39171
457.07	578.87566
457.378	587.3657
457.685	570.38093
457.993	548.05945
458.3	587.3657
458.607	619.16254
458.915	610.68958
459.222	590.54827
459.529	567.19418
459.836	564.00676
460.143	560.81866
460.45	548.05945
460.757	553.37712
461.064	559.75581
461.371	572.50506
461.678	589.48748
461.985	580.99861
462.292	578.87566
462.598	569.31875
462.905	535.28916
463.212	552.31374
463.518	568.25651
463.825	544.86793
464.131	591.60898
464.438	625.51436
464.744	580.99861
465.051	560.81866
465.357	592.66961
465.664	593.73018
465.97	593.73018
466.276	596.91145
466.582	567.19418
466.889	585.24363
467.195	586.3047
467.501	571.44303
467.807	573.56701
468.113	579.93717
468.419	600.09208
468.725	576.75242
469.031	570.38093
469.337	603.27207
469.642	605.39171
469.948	606.45143
470.254	600.09208
470.56	574.62889
470.865	559.75581
471.171	564.00676
471.477	573.56701
471.782	569.31875
472.088	548.05945
472.393	578.87566
472.698	597.97173
473.004	558.69289
473.309	568.25651
473.614	574.62889
473.92	543.80393
474.225	555.50366
474.53	588.42663
474.835	596.91145
475.14	578.87566
475.445	559.75581
475.75	583.12126
476.055	595.8511
476.36	578.87566
476.665	562.94414
476.97	566.13178
477.275	575.69069
477.58	556.56681
477.885	569.31875
478.189	599.03194
478.494	601.15215
478.799	596.91145
479.103	573.56701
479.408	578.87566
479.712	593.73018
480.017	577.81408
480.321	558.69289
480.625	539.54717
480.93	560.81866
481.234	578.87566
481.538	568.25651
481.843	558.69289
482.147	564.00676
482.451	565.06931
482.755	561.88144
483.059	564.00676
483.363	550.18675
483.667	560.81866
483.971	566.13178
484.275	572.50506
484.579	580.99861
484.883	572.50506
485.187	576.75242
485.49	576.75242
485.794	566.13178
486.098	568.25651
486.401	579.93717
486.705	590.54827
487.009	586.3047
487.312	596.91145
487.616	620.22135
487.919	584.18248
488.222	550.18675
488.526	565.06931
488.829	596.91145
489.132	588.42663
489.436	569.31875
489.739	568.25651
490.042	556.56681
490.345	585.24363
490.648	603.27207
490.951	579.93717
491.254	592.66961
491.557	624.4559
491.86	586.3047
492.163	558.69289
492.466	573.56701
492.769	557.62989
493.072	565.06931
493.375	588.42663
493.677	605.39171
493.98	607.51107
494.283	588.42663
494.585	590.54827
494.888	590.54827
495.19	569.31875
495.493	585.24363
495.795	580.99861
496.098	585.24363
496.4	606.45143
496.702	599.03194
497.005	614.92662
497.307	631.86373
497.609	596.91145
497.911	526.76937
498.213	536.35378
498.515	585.24363
498.818	595.8511
499.12	597.97173
499.422	573.56701
499.723	557.62989
500.025	570.38093
500.327	559.75581
500.629	555.50366
500.931	540.61148
501.233	535.28916
501.534	595.8511
501.836	574.62889
502.138	553.37712
502.439	589.48748
502.741	588.42663
503.042	567.19418
503.344	573.56701
503.645	601.15215
503.947	566.13178
504.248	548.05945
504.55	567.19418
504.851	576.75242
505.152	573.56701
505.453	580.99861
505.755	588.42663
506.056	578.87566
506.357	561.88144
506.658	596.91145
506.959	600.09208
507.26	595.8511
507.561	586.3047
507.862	558.69289
508.163	594.79068
508.464	592.66961
508.764	571.44303
509.065	558.69289
509.366	595.8511
509.667	601.15215
509.967	565.06931
510.268	557.62989
510.569	564.00676
510.869	579.93717
511.17	551.25029
511.47	560.81866
511.771	582.05997
512.071	578.87566
512.371	578.87566
512.672	578.87566
512.972	575.69069
513.272	572.50506
513.573	558.69289
513.873	535.28916
514.173	569.31875
514.473	603.27207
514.773	606.45143
515.073	597.97173
515.373	580.99861
515.673	556.56681
515.973	550.18675
516.273	536.35378
516.573	540.61148
516.873	557.62989
517.172	580.99861
517.472	578.87566
517.772	559.75581
518.072	588.42663
518.371	582.05997
518.671	579.93717
518.97	605.39171
519.27	588.42663
519.569	560.81866
519.869	570.38093
520.168	555.50366
520.468	557.62989
520.767	577.81408
521.066	571.44303
521.366	575.69069
521.665	592.66961
521.964	596.91145
522.263	576.75242
522.562	566.13178
522.861	546.99569
523.161	540.61148
523.46	557.62989
523.759	555.50366
524.057	569.31875
524.356	583.12126
524.655	582.05997
524.954	567.19418
525.253	566.13178
525.552	593.73018
525.85	597.97173
526.149	570.38093
526.448	562.94414
526.746	567.19418
527.045	545.93185
527.344	566.13178
527.642	594.79068
527.941	595.8511
528.239	574.62889
528.537	573.56701
528.836	558.69289
529.134	542.73986
529.432	568.25651
529.731	575.69069
530.029	585.24363
530.327	556.56681
530.625	571.44303
530.923	601.15215
531.221	586.3047
531.52	576.75242
531.818	551.25029
532.116	569.31875
532.413	580.99861
532.711	589.48748
533.009	578.87566
533.307	577.81408
533.605	585.24363
533.903	566.13178
534.2	550.18675
534.498	565.06931
534.796	600.09208
535.093	593.73018
535.391	579.93717
535.689	564.00676
535.986	552.31374
536.284	554.44043
536.581	572.50506
536.878	590.54827
537.176	574.62889
537.473	552.31374
537.77	574.62889
538.068	590.54827
538.365	599.03194
538.662	579.93717
538.959	542.73986
539.256	556.56681
539.554	603.27207
