Data from dark_beginning_ST026791__170__1268.txt Node

Date: Mon Aug 18 22:11:23 AEST 2025
User: mathewyoussef
Spectrometer: ST02679
Trigger mode: 0
Integration Time (sec): 6.653700E-1
Scans to average: 1
Nonlinearity correction enabled: true
Boxcar width: 0
Storing dark spectrum: false
XAxis mode: Wavelengths
Number of Pixels in Spectrum: 1516
>>>>>Begin Spectral Data<<<<<
187.304	577.81408
187.653	612.80824
188.002	574.62889
188.351	533.15969
188.7	560.81866
189.048	571.44303
189.397	588.42663
189.746	579.93717
190.094	571.44303
190.443	573.56701
190.791	552.31374
191.14	567.19418
191.488	590.54827
191.837	569.31875
192.185	567.19418
192.533	584.18248
192.881	565.06931
193.229	554.44043
193.577	566.13178
193.925	552.31374
194.273	556.56681
194.621	587.3657
194.969	575.69069
195.317	538.48278
195.664	558.69289
196.012	562.94414
196.359	532.09483
196.707	556.56681
197.054	564.00676
197.402	553.37712
197.749	570.38093
198.096	591.60898
198.443	575.69069
198.791	545.93185
199.138	567.19418
199.485	596.91145
199.832	573.56701
200.179	524.63863
200.525	525.70404
200.872	562.94414
201.219	569.31875
201.566	582.05997
201.912	576.75242
202.259	545.93185
202.605	554.44043
202.952	573.56701
203.298	593.73018
203.644	587.3657
203.991	572.50506
204.337	548.05945
204.683	526.76937
205.029	554.44043
205.375	566.13178
205.721	545.93185
206.067	556.56681
206.413	584.18248
206.759	583.12126
207.104	576.75242
207.45	564.00676
207.796	560.81866
208.141	557.62989
208.487	579.93717
208.832	600.09208
209.177	577.81408
209.523	571.44303
209.868	552.31374
210.213	560.81866
210.558	561.88144
210.903	551.25029
211.248	551.25029
211.593	535.28916
211.938	551.25029
212.283	576.75242
212.628	579.93717
212.973	571.44303
213.317	570.38093
213.662	560.81866
214.007	566.13178
214.351	576.75242
214.696	562.94414
215.04	574.62889
215.384	586.3047
215.729	565.06931
216.073	556.56681
216.417	578.87566
216.761	582.05997
217.105	593.73018
217.449	593.73018
217.793	571.44303
218.137	567.19418
218.481	560.81866
218.824	579.93717
219.168	578.87566
219.512	554.44043
219.855	565.06931
220.199	548.05945
220.542	529.96488
220.886	583.12126
221.229	585.24363
221.572	564.00676
221.916	582.05997
222.259	556.56681
222.602	532.09483
222.945	540.61148
223.288	593.73018
223.631	576.75242
223.974	518.24449
224.317	529.96488
224.659	551.25029
225.002	585.24363
225.345	569.31875
225.687	542.73986
226.03	570.38093
226.372	582.05997
226.715	561.88144
227.057	553.37712
227.4	555.50366
227.742	576.75242
228.084	574.62889
228.426	562.94414
228.768	552.31374
229.11	545.93185
229.452	573.56701
229.794	595.8511
230.136	600.09208
230.478	587.3657
230.82	570.38093
231.161	540.61148
231.503	574.62889
231.845	601.15215
232.186	604.33193
232.528	614.92662
232.869	569.31875
233.21	544.86793
233.552	556.56681
233.893	551.25029
234.234	543.80393
234.575	559.75581
234.916	595.8511
235.257	577.81408
235.598	561.88144
235.939	551.25029
236.28	554.44043
236.621	588.42663
236.961	584.18248
237.302	628.68935
237.643	592.66961
237.983	550.18675
238.324	575.69069
238.664	578.87566
239.005	566.13178
239.345	555.50366
239.685	584.18248
240.025	551.25029
240.366	526.76937
240.706	571.44303
241.046	574.62889
241.386	559.75581
241.726	559.75581
242.066	550.18675
242.405	568.25651
242.745	614.92662
243.085	596.91145
243.425	564.00676
243.764	562.94414
244.104	592.66961
244.443	596.91145
244.783	564.00676
245.122	565.06931
245.461	551.25029
245.801	570.38093
246.14	577.81408
246.479	548.05945
246.818	551.25029
247.157	609.63015
247.496	611.74894
247.835	549.12314
248.174	537.41832
248.513	567.19418
248.852	630.80567
249.19	622.33876
249.529	567.19418
249.868	585.24363
250.206	561.88144
250.545	545.93185
250.883	586.3047
251.221	583.12126
251.56	586.3047
251.898	576.75242
252.236	543.80393
252.574	531.0299
252.912	551.25029
253.25	571.44303
253.588	556.56681
253.926	552.31374
254.264	577.81408
254.602	568.25651
254.94	548.05945
255.278	554.44043
255.615	554.44043
255.953	552.31374
256.29	562.94414
256.628	570.38093
256.965	579.93717
257.303	579.93717
257.64	579.93717
257.977	584.18248
258.314	582.05997
258.652	565.06931
258.989	548.05945
259.326	583.12126
259.663	588.42663
260	557.62989
260.337	548.05945
260.673	557.62989
261.01	574.62889
261.347	574.62889
261.684	553.37712
262.02	549.12314
262.357	549.12314
262.693	538.48278
263.03	512.91382
263.366	541.6757
263.702	574.62889
264.039	554.44043
264.375	535.28916
264.711	559.75581
265.047	570.38093
265.383	570.38093
265.719	570.38093
266.055	558.69289
266.391	590.54827
266.727	590.54827
267.063	573.56701
267.399	562.94414
267.734	594.79068
268.07	590.54827
268.405	570.38093
268.741	608.57064
269.076	573.56701
269.412	544.86793
269.747	553.37712
270.082	545.93185
270.418	541.6757
270.753	536.35378
271.088	555.50366
271.423	561.88144
271.758	551.25029
272.093	583.12126
272.428	588.42663
272.763	586.3047
273.098	619.16254
273.433	588.42663
273.767	548.05945
274.102	559.75581
274.436	576.75242
274.771	575.69069
275.106	556.56681
275.44	572.50506
275.774	587.3657
276.109	561.88144
276.443	548.05945
276.777	539.54717
277.111	545.93185
277.445	544.86793
277.78	561.88144
278.114	607.51107
278.447	600.09208
278.781	586.3047
279.115	578.87566
279.449	534.22446
279.783	534.22446
280.116	542.73986
280.45	550.18675
280.784	590.54827
281.117	605.39171
281.451	596.91145
281.784	595.8511
282.117	585.24363
282.451	576.75242
282.784	564.00676
283.117	558.69289
283.45	579.93717
283.783	554.44043
284.116	559.75581
284.449	582.05997
284.782	583.12126
285.115	595.8511
285.448	561.88144
285.781	553.37712
286.114	546.99569
286.446	529.96488
286.779	558.69289
287.111	556.56681
287.444	540.61148
287.776	572.50506
288.109	585.24363
288.441	575.69069
288.773	585.24363
289.106	590.54827
289.438	579.93717
289.77	569.31875
290.102	566.13178
290.434	567.19418
290.766	595.8511
291.098	597.97173
291.43	587.3657
291.762	566.13178
292.094	560.81866
292.425	543.80393
292.757	538.48278
293.089	576.75242
293.42	566.13178
293.752	548.05945
294.083	545.93185
294.414	564.00676
294.746	571.44303
295.077	571.44303
295.408	596.91145
295.74	592.66961
296.071	534.22446
296.402	549.12314
296.733	574.62889
297.064	558.69289
297.395	562.94414
297.726	560.81866
298.056	561.88144
298.387	572.50506
298.718	589.48748
299.049	586.3047
299.379	577.81408
299.71	559.75581
300.04	555.50366
300.371	574.62889
300.701	579.93717
301.031	590.54827
301.362	592.66961
301.692	575.69069
302.022	569.31875
302.352	573.56701
302.682	561.88144
303.012	546.99569
303.342	540.61148
303.672	556.56681
304.002	573.56701
304.332	566.13178
304.662	572.50506
304.992	591.60898
305.321	568.25651
305.651	561.88144
305.98	608.57064
306.31	601.15215
306.639	591.60898
306.969	567.19418
307.298	528.89979
307.628	541.6757
307.957	548.05945
308.286	565.06931
308.615	556.56681
308.944	571.44303
309.273	597.97173
309.602	574.62889
309.931	552.31374
310.26	565.06931
310.589	572.50506
310.918	559.75581
311.247	580.99861
311.575	569.31875
311.904	541.6757
312.233	583.12126
312.561	593.73018
312.89	544.86793
313.218	565.06931
313.546	604.33193
313.875	556.56681
314.203	525.70404
314.531	556.56681
314.859	579.93717
315.188	582.05997
315.516	597.97173
315.844	596.91145
316.172	585.24363
316.5	615.9857
316.827	597.97173
317.155	567.19418
317.483	588.42663
317.811	567.19418
318.138	534.22446
318.466	558.69289
318.794	551.25029
319.121	533.15969
319.449	567.19418
319.776	580.99861
320.103	556.56681
320.431	543.80393
320.758	542.73986
321.085	559.75581
321.412	583.12126
321.739	591.60898
322.066	588.42663
322.393	594.79068
322.72	576.75242
323.047	562.94414
323.374	571.44303
323.701	568.25651
324.028	593.73018
324.354	583.12126
324.681	558.69289
325.008	571.44303
325.334	579.93717
325.661	565.06931
325.987	575.69069
326.314	587.3657
326.64	574.62889
326.966	576.75242
327.293	588.42663
327.619	607.51107
327.945	604.33193
328.271	589.48748
328.597	570.38093
328.923	556.56681
329.249	567.19418
329.575	578.87566
329.901	585.24363
330.227	593.73018
330.552	585.24363
330.878	568.25651
331.204	576.75242
331.529	597.97173
331.855	603.27207
332.18	595.8511
332.506	590.54827
332.831	580.99861
333.156	570.38093
333.482	565.06931
333.807	565.06931
334.132	582.05997
334.457	588.42663
334.782	580.99861
335.107	569.31875
335.432	564.00676
335.757	560.81866
336.082	539.54717
336.407	551.25029
336.732	577.81408
337.057	584.18248
337.381	583.12126
337.706	572.50506
338.031	546.99569
338.355	546.99569
338.68	580.99861
339.004	571.44303
339.329	568.25651
339.653	565.06931
339.977	543.80393
340.301	553.37712
340.626	560.81866
340.95	568.25651
341.274	564.00676
341.598	565.06931
341.922	584.18248
342.246	583.12126
342.57	545.93185
342.894	554.44043
343.218	608.57064
343.541	606.45143
343.865	588.42663
344.189	571.44303
344.512	559.75581
344.836	561.88144
345.159	550.18675
345.483	553.37712
345.806	557.62989
346.13	567.19418
346.453	567.19418
346.776	557.62989
347.099	576.75242
347.423	564.00676
347.746	548.05945
348.069	546.99569
348.392	577.81408
348.715	577.81408
349.038	555.50366
349.361	586.3047
349.683	579.93717
350.006	548.05945
350.329	565.06931
350.652	583.12126
350.974	570.38093
351.297	569.31875
351.619	564.00676
351.942	556.56681
352.264	577.81408
352.587	572.50506
352.909	533.15969
353.231	539.54717
353.554	541.6757
353.876	537.41832
354.198	553.37712
354.52	552.31374
354.842	565.06931
355.164	564.00676
355.486	578.87566
355.808	608.57064
356.13	574.62889
356.452	584.18248
356.773	617.04472
357.095	582.05997
357.417	562.94414
357.738	569.31875
358.06	549.12314
358.381	560.81866
358.703	585.24363
359.024	593.73018
359.346	592.66961
359.667	560.81866
359.988	569.31875
360.309	571.44303
360.631	553.37712
360.952	570.38093
361.273	569.31875
361.594	568.25651
361.915	588.42663
362.236	582.05997
362.557	573.56701
362.878	591.60898
363.198	580.99861
363.519	560.81866
363.84	599.03194
364.16	576.75242
364.481	529.96488
364.802	560.81866
365.122	565.06931
365.443	549.12314
365.763	566.13178
366.083	588.42663
366.404	582.05997
366.724	584.18248
367.044	594.79068
367.364	590.54827
367.685	562.94414
368.005	546.99569
368.325	584.18248
368.645	589.48748
368.965	561.88144
369.284	561.88144
369.604	556.56681
369.924	574.62889
370.244	583.12126
370.564	539.54717
370.883	537.41832
371.203	564.00676
371.522	561.88144
371.842	566.13178
372.161	570.38093
372.481	568.25651
372.8	555.50366
373.119	542.73986
373.439	550.18675
373.758	554.44043
374.077	549.12314
374.396	575.69069
374.715	577.81408
375.034	556.56681
375.353	558.69289
375.672	557.62989
375.991	562.94414
376.31	559.75581
376.629	569.31875
376.948	570.38093
377.266	561.88144
377.585	583.12126
377.904	594.79068
378.222	578.87566
378.541	586.3047
378.859	574.62889
379.178	535.28916
379.496	543.80393
379.814	567.19418
380.133	551.25029
380.451	536.35378
380.769	549.12314
381.087	553.37712
381.405	548.05945
381.723	538.48278
382.041	543.80393
382.359	556.56681
382.677	561.88144
382.995	561.88144
383.313	549.12314
383.631	549.12314
383.949	564.00676
384.266	580.99861
384.584	585.24363
384.901	571.44303
385.219	555.50366
385.537	566.13178
385.854	574.62889
386.171	562.94414
386.489	548.05945
386.806	570.38093
387.123	599.03194
387.441	568.25651
387.758	591.60898
388.075	596.91145
388.392	556.56681
388.709	554.44043
389.026	555.50366
389.343	565.06931
389.66	575.69069
389.977	575.69069
390.294	579.93717
390.61	568.25651
390.927	559.75581
391.244	574.62889
391.56	572.50506
391.877	565.06931
392.193	552.31374
392.51	567.19418
392.826	567.19418
393.143	549.12314
393.459	577.81408
393.775	593.73018
394.092	582.05997
394.408	562.94414
394.724	537.41832
395.04	527.83462
395.356	550.18675
395.672	586.3047
395.988	596.91145
396.304	584.18248
396.62	557.62989
396.936	537.41832
397.252	552.31374
397.567	559.75581
397.883	579.93717
398.199	565.06931
398.514	527.83462
398.83	559.75581
399.146	595.8511
399.461	595.8511
399.777	593.73018
400.092	591.60898
400.407	586.3047
400.723	543.80393
401.038	527.83462
401.353	574.62889
401.668	589.48748
401.983	573.56701
402.298	561.88144
402.613	574.62889
402.928	575.69069
403.243	565.06931
403.558	572.50506
403.873	573.56701
404.188	546.99569
404.503	529.96488
404.817	540.61148
405.132	543.80393
405.447	561.88144
405.761	574.62889
406.076	594.79068
406.39	576.75242
406.705	560.81866
407.019	574.62889
407.334	567.19418
407.648	586.3047
407.962	573.56701
408.276	542.73986
408.591	545.93185
408.905	568.25651
409.219	584.18248
409.533	600.09208
409.847	586.3047
410.161	575.69069
410.475	571.44303
410.789	558.69289
411.102	567.19418
411.416	575.69069
411.73	586.3047
412.044	559.75581
412.357	568.25651
412.671	585.24363
412.984	571.44303
413.298	556.56681
413.611	571.44303
413.925	600.09208
414.238	582.05997
414.552	583.12126
414.865	553.37712
415.178	527.83462
415.491	543.80393
415.804	586.3047
416.118	582.05997
416.431	551.25029
416.744	555.50366
417.057	573.56701
417.37	603.27207
417.683	584.18248
417.995	557.62989
418.308	548.05945
418.621	559.75581
418.934	573.56701
419.246	564.00676
419.559	552.31374
419.872	564.00676
420.184	561.88144
420.497	572.50506
420.809	567.19418
421.121	571.44303
421.434	567.19418
421.746	526.76937
422.058	552.31374
422.371	556.56681
422.683	543.80393
422.995	541.6757
423.307	553.37712
423.619	554.44043
423.931	531.0299
424.243	529.96488
424.555	526.76937
424.867	552.31374
425.179	577.81408
425.491	569.31875
425.802	556.56681
426.114	548.05945
426.426	569.31875
426.737	548.05945
427.049	526.76937
427.361	571.44303
427.672	566.13178
427.984	564.00676
428.295	560.81866
428.606	529.96488
428.918	574.62889
429.229	633.97964
429.54	600.09208
429.851	559.75581
430.163	591.60898
430.474	605.39171
430.785	570.38093
431.096	565.06931
431.407	586.3047
431.718	576.75242
432.029	577.81408
432.339	552.31374
432.65	535.28916
432.961	559.75581
433.272	548.05945
433.582	545.93185
433.893	557.62989
434.204	568.25651
434.514	552.31374
434.825	536.35378
435.135	550.18675
435.446	568.25651
435.756	583.12126
436.066	593.73018
436.377	633.97964
436.687	607.51107
436.997	559.75581
437.307	583.12126
437.617	577.81408
437.927	550.18675
438.237	545.93185
438.547	578.87566
438.857	585.24363
439.167	534.22446
439.477	526.76937
439.787	553.37712
440.097	571.44303
440.407	589.48748
440.716	571.44303
441.026	564.00676
441.336	565.06931
441.645	554.44043
441.955	541.6757
442.264	553.37712
442.574	589.48748
442.883	605.39171
443.192	609.63015
443.502	591.60898
443.811	562.94414
444.12	558.69289
444.429	565.06931
444.739	570.38093
445.048	560.81866
445.357	565.06931
445.666	588.42663
445.975	588.42663
446.284	575.69069
446.593	566.13178
446.901	577.81408
447.21	573.56701
447.519	554.44043
447.828	551.25029
448.136	555.50366
448.445	545.93185
448.754	552.31374
449.062	571.44303
449.371	576.75242
449.679	559.75581
449.988	525.70404
450.296	539.54717
450.605	562.94414
450.913	564.00676
451.221	607.51107
451.529	619.16254
451.838	587.3657
452.146	592.66961
452.454	573.56701
452.762	577.81408
453.07	594.79068
453.378	564.00676
453.686	528.89979
453.994	533.15969
454.302	539.54717
454.609	558.69289
454.917	576.75242
455.225	568.25651
455.533	567.19418
455.84	550.18675
456.148	562.94414
456.455	582.05997
456.763	596.91145
457.07	603.27207
457.378	593.73018
457.685	571.44303
457.993	560.81866
458.3	558.69289
458.607	536.35378
458.915	543.80393
459.222	553.37712
459.529	568.25651
459.836	587.3657
460.143	553.37712
460.45	560.81866
460.757	576.75242
461.064	564.00676
461.371	562.94414
461.678	573.56701
461.985	557.62989
462.292	519.31038
462.598	550.18675
462.905	573.56701
463.212	582.05997
463.518	567.19418
463.825	550.18675
464.131	573.56701
464.438	569.31875
464.744	564.00676
465.051	569.31875
465.357	597.97173
465.664	607.51107
465.97	601.15215
466.276	570.38093
466.582	557.62989
466.889	569.31875
467.195	569.31875
467.501	571.44303
467.807	577.81408
468.113	574.62889
468.419	552.31374
468.725	543.80393
469.031	539.54717
469.337	601.15215
469.642	605.39171
469.948	579.93717
470.254	601.15215
470.56	593.73018
470.865	583.12126
471.171	552.31374
471.477	542.73986
471.782	552.31374
472.088	543.80393
472.393	587.3657
472.698	607.51107
473.004	556.56681
473.309	542.73986
473.614	573.56701
473.92	566.13178
474.225	548.05945
474.53	579.93717
474.835	577.81408
475.14	544.86793
475.445	554.44043
475.75	558.69289
476.055	576.75242
476.36	583.12126
476.665	576.75242
476.97	603.27207
477.275	599.03194
477.58	557.62989
477.885	543.80393
478.189	562.94414
478.494	578.87566
478.799	562.94414
479.103	537.41832
479.408	561.88144
479.712	589.48748
480.017	602.21215
480.321	605.39171
480.625	580.99861
480.93	554.44043
481.234	543.80393
481.538	548.05945
481.843	575.69069
482.147	599.03194
482.451	582.05997
482.755	557.62989
483.059	553.37712
483.363	570.38093
483.667	576.75242
483.971	564.00676
484.275	549.12314
484.579	529.96488
484.883	533.15969
485.187	556.56681
485.49	573.56701
485.794	553.37712
486.098	556.56681
486.401	565.06931
486.705	575.69069
487.009	562.94414
487.312	549.12314
487.616	567.19418
487.919	559.75581
488.222	560.81866
488.526	543.80393
488.829	554.44043
489.132	562.94414
489.436	577.81408
489.739	583.12126
490.042	550.18675
490.345	587.3657
490.648	594.79068
490.951	542.73986
491.254	552.31374
491.557	585.24363
491.86	565.06931
492.163	565.06931
492.466	596.91145
492.769	601.15215
493.072	603.27207
493.375	603.27207
493.677	582.05997
493.98	548.05945
494.283	566.13178
494.585	584.18248
494.888	565.06931
495.19	591.60898
495.493	603.27207
495.795	552.31374
496.098	543.80393
496.4	570.38093
496.702	559.75581
497.005	574.62889
497.307	587.3657
497.609	556.56681
497.911	527.83462
498.213	545.93185
498.515	551.25029
498.818	566.13178
499.12	562.94414
499.422	553.37712
499.723	568.25651
500.025	571.44303
500.327	580.99861
500.629	576.75242
500.931	574.62889
501.233	575.69069
501.534	562.94414
501.836	548.05945
502.138	544.86793
502.439	562.94414
502.741	564.00676
503.042	538.48278
503.344	548.05945
503.645	590.54827
503.947	585.24363
504.248	551.25029
504.55	561.88144
504.851	576.75242
505.152	572.50506
505.453	545.93185
505.755	566.13178
506.056	574.62889
506.357	557.62989
506.658	572.50506
506.959	566.13178
507.26	575.69069
507.561	585.24363
507.862	578.87566
508.163	576.75242
508.464	594.79068
508.764	571.44303
509.065	538.48278
509.366	562.94414
509.667	583.12126
509.967	571.44303
510.268	562.94414
510.569	580.99861
510.869	566.13178
511.17	535.28916
511.47	551.25029
511.771	574.62889
512.071	566.13178
512.371	545.93185
512.672	539.54717
512.972	557.62989
513.272	557.62989
513.573	548.05945
513.873	564.00676
514.173	573.56701
514.473	560.81866
514.773	577.81408
515.073	578.87566
515.373	553.37712
515.673	546.99569
515.973	544.86793
516.273	557.62989
516.573	585.24363
516.873	601.15215
517.172	570.38093
517.472	545.93185
517.772	553.37712
518.072	564.00676
518.371	555.50366
518.671	544.86793
518.97	564.00676
519.27	562.94414
519.569	580.99861
519.869	597.97173
520.168	562.94414
520.468	560.81866
520.767	567.19418
521.066	550.18675
521.366	546.99569
521.665	552.31374
521.964	537.41832
522.263	527.83462
522.562	560.81866
522.861	576.75242
523.161	560.81866
523.46	556.56681
523.759	585.24363
524.057	591.60898
524.356	564.00676
524.655	536.35378
524.954	540.61148
525.253	578.87566
525.552	586.3047
525.85	584.18248
526.149	573.56701
526.448	559.75581
526.746	564.00676
527.045	543.80393
527.344	569.31875
527.642	609.63015
527.941	573.56701
528.239	560.81866
528.537	599.03194
528.836	587.3657
529.134	564.00676
529.432	583.12126
529.731	584.18248
530.029	574.62889
530.327	573.56701
530.625	561.88144
530.923	555.50366
531.221	560.81866
531.52	561.88144
531.818	565.06931
532.116	539.54717
532.413	532.09483
532.711	572.50506
533.009	577.81408
533.307	568.25651
533.605	572.50506
533.903	562.94414
534.2	540.61148
534.498	551.25029
534.796	567.19418
535.093	569.31875
535.391	589.48748
535.689	583.12126
535.986	571.44303
536.284	577.81408
536.581	572.50506
536.878	578.87566
537.176	585.24363
537.473	561.88144
537.77	561.88144
538.068	561.88144
538.365	573.56701
538.662	583.12126
538.959	586.3047
539.256	569.31875
