Data from dark_beginning_ST026791__197__1295.txt Node

Date: Mon Aug 18 22:11:59 AEST 2025
User: mathewyoussef
Spectrometer: ST02679
Trigger mode: 0
Integration Time (sec): 6.653700E-1
Scans to average: 1
Nonlinearity correction enabled: true
Boxcar width: 0
Storing dark spectrum: false
XAxis mode: Wavelengths
Number of Pixels in Spectrum: 1516
>>>>>Begin Spectral Data<<<<<
187.304	583.12126
187.653	584.18248
188.002	611.74894
188.351	605.39171
188.7	588.42663
189.048	591.60898
189.397	599.03194
189.746	584.18248
190.094	583.12126
190.443	583.12126
190.791	572.50506
191.14	594.79068
191.488	578.87566
191.837	562.94414
192.185	570.38093
192.533	553.37712
192.881	561.88144
193.229	592.66961
193.577	591.60898
193.925	587.3657
194.273	573.56701
194.621	586.3047
194.969	585.24363
195.317	569.31875
195.664	561.88144
196.012	552.31374
196.359	574.62889
196.707	574.62889
197.054	580.99861
197.402	570.38093
197.749	554.44043
198.096	568.25651
198.443	574.62889
198.791	557.62989
199.138	554.44043
199.485	577.81408
199.832	565.06931
200.179	552.31374
200.525	574.62889
200.872	576.75242
201.219	570.38093
201.566	578.87566
201.912	586.3047
202.259	584.18248
202.605	575.69069
202.952	569.31875
203.298	574.62889
203.644	580.99861
203.991	571.44303
204.337	571.44303
204.683	560.81866
205.029	571.44303
205.375	595.8511
205.721	592.66961
206.067	576.75242
206.413	568.25651
206.759	574.62889
207.104	555.50366
207.45	554.44043
207.796	575.69069
208.141	574.62889
208.487	584.18248
208.832	602.21215
209.177	588.42663
209.523	578.87566
209.868	602.21215
210.213	606.45143
210.558	584.18248
210.903	565.06931
211.248	582.05997
211.593	565.06931
211.938	584.18248
212.283	627.63109
212.628	582.05997
212.973	584.18248
213.317	579.93717
213.662	579.93717
214.007	600.09208
214.351	601.15215
214.696	608.57064
215.04	586.3047
215.384	537.41832
215.729	554.44043
216.073	587.3657
216.417	587.3657
216.761	594.79068
217.105	599.03194
217.449	601.15215
217.793	588.42663
218.137	599.03194
218.481	620.22135
218.824	609.63015
219.168	565.06931
219.512	539.54717
219.855	555.50366
220.199	556.56681
220.542	573.56701
220.886	591.60898
221.229	569.31875
221.572	579.93717
221.916	588.42663
222.259	583.12126
222.602	566.13178
222.945	567.19418
223.288	605.39171
223.631	592.66961
223.974	552.31374
224.317	558.69289
224.659	574.62889
225.002	567.19418
225.345	554.44043
225.687	555.50366
226.03	586.3047
226.372	586.3047
226.715	582.05997
227.057	590.54827
227.4	585.24363
227.742	583.12126
228.084	565.06931
228.426	568.25651
228.768	595.8511
229.11	578.87566
229.452	582.05997
229.794	609.63015
230.136	586.3047
230.478	584.18248
230.82	585.24363
231.161	553.37712
231.503	608.57064
231.845	630.80567
232.186	630.80567
232.528	638.21066
232.869	573.56701
233.21	551.25029
233.552	580.99861
233.893	602.21215
234.234	578.87566
234.575	573.56701
234.916	579.93717
235.257	571.44303
235.598	573.56701
235.939	589.48748
236.28	586.3047
236.621	569.31875
236.961	592.66961
237.302	593.73018
237.643	582.05997
237.983	583.12126
238.324	577.81408
238.664	589.48748
239.005	592.66961
239.345	568.25651
239.685	556.56681
240.025	587.3657
240.366	580.99861
240.706	573.56701
241.046	571.44303
241.386	559.75581
241.726	566.13178
242.066	580.99861
242.405	580.99861
242.745	583.12126
243.085	603.27207
243.425	610.68958
243.764	615.9857
244.104	625.51436
244.443	595.8511
244.783	548.05945
245.122	552.31374
245.461	573.56701
245.801	572.50506
246.14	583.12126
246.479	597.97173
246.818	573.56701
247.157	589.48748
247.496	602.21215
247.835	575.69069
248.174	577.81408
248.513	582.05997
248.852	587.3657
249.19	595.8511
249.529	591.60898
249.868	588.42663
250.206	583.12126
250.545	596.91145
250.883	601.15215
251.221	557.62989
251.56	545.93185
251.898	570.38093
252.236	608.57064
252.574	605.39171
252.912	589.48748
253.25	564.00676
253.588	542.73986
253.926	559.75581
254.264	558.69289
254.602	571.44303
254.94	577.81408
255.278	571.44303
255.615	590.54827
255.953	587.3657
256.29	559.75581
256.628	537.41832
256.965	564.00676
257.303	580.99861
257.64	605.39171
257.977	594.79068
258.314	567.19418
258.652	573.56701
258.989	574.62889
259.326	587.3657
259.663	587.3657
260	587.3657
260.337	558.69289
260.673	553.37712
261.01	569.31875
261.347	578.87566
261.684	570.38093
262.02	570.38093
262.357	570.38093
262.693	545.93185
263.03	531.0299
263.366	546.99569
263.702	574.62889
264.039	594.79068
264.375	593.73018
264.711	570.38093
265.047	539.54717
265.383	542.73986
265.719	562.94414
266.055	573.56701
266.391	587.3657
266.727	589.48748
267.063	578.87566
267.399	573.56701
267.734	582.05997
268.07	584.18248
268.405	594.79068
268.741	603.27207
269.076	595.8511
269.412	588.42663
269.747	579.93717
270.082	572.50506
270.418	568.25651
270.753	582.05997
271.088	591.60898
271.423	560.81866
271.758	554.44043
272.093	603.27207
272.428	637.15301
272.763	637.15301
273.098	606.45143
273.433	565.06931
273.767	587.3657
274.102	606.45143
274.436	584.18248
274.771	580.99861
275.106	582.05997
275.44	591.60898
275.774	597.97173
276.109	591.60898
276.443	572.50506
276.777	583.12126
277.111	587.3657
277.445	577.81408
277.78	586.3047
278.114	592.66961
278.447	595.8511
278.781	591.60898
279.115	609.63015
279.449	595.8511
279.783	573.56701
280.116	572.50506
280.45	550.18675
280.784	561.88144
281.117	606.45143
281.451	585.24363
281.784	607.51107
282.117	640.32577
282.451	585.24363
282.784	574.62889
283.117	583.12126
283.45	583.12126
283.783	588.42663
284.116	588.42663
284.449	613.86746
284.782	625.51436
285.115	601.15215
285.448	577.81408
285.781	566.13178
286.114	566.13178
286.446	580.99861
286.779	588.42663
287.111	572.50506
287.444	549.12314
287.776	569.31875
288.109	597.97173
288.441	601.15215
288.773	578.87566
289.106	585.24363
289.438	589.48748
289.77	590.54827
290.102	610.68958
290.434	579.93717
290.766	574.62889
291.098	580.99861
291.43	571.44303
291.762	575.69069
292.094	583.12126
292.425	588.42663
292.757	565.06931
293.089	553.37712
293.42	560.81866
293.752	566.13178
294.083	582.05997
294.414	559.75581
294.746	539.54717
295.077	549.12314
295.408	556.56681
295.74	579.93717
296.071	567.19418
296.402	562.94414
296.733	559.75581
297.064	553.37712
297.395	554.44043
297.726	566.13178
298.056	599.03194
298.387	613.86746
298.718	611.74894
299.049	591.60898
299.379	576.75242
299.71	552.31374
300.04	564.00676
300.371	580.99861
300.701	548.05945
301.031	552.31374
301.362	607.51107
301.692	608.57064
302.022	573.56701
302.352	586.3047
302.682	580.99861
303.012	570.38093
303.342	584.18248
303.672	583.12126
304.002	590.54827
304.332	584.18248
304.662	578.87566
304.992	575.69069
305.321	571.44303
305.651	569.31875
305.98	586.3047
306.31	589.48748
306.639	585.24363
306.969	619.16254
307.298	606.45143
307.628	582.05997
307.957	600.09208
308.286	601.15215
308.615	587.3657
308.944	602.21215
309.273	589.48748
309.602	558.69289
309.931	569.31875
310.26	593.73018
310.589	578.87566
310.918	561.88144
311.247	564.00676
311.575	570.38093
311.904	580.99861
312.233	609.63015
312.561	611.74894
312.89	567.19418
313.218	588.42663
313.546	617.04472
313.875	583.12126
314.203	554.44043
314.531	541.6757
314.859	582.05997
315.188	610.68958
315.516	584.18248
315.844	579.93717
316.172	590.54827
316.5	586.3047
316.827	574.62889
317.155	606.45143
317.483	628.68935
317.811	594.79068
318.138	573.56701
318.466	582.05997
318.794	590.54827
319.121	583.12126
319.449	579.93717
319.776	588.42663
320.103	595.8511
320.431	595.8511
320.758	595.8511
321.085	592.66961
321.412	582.05997
321.739	591.60898
322.066	606.45143
322.393	625.51436
322.72	594.79068
323.047	562.94414
323.374	588.42663
323.701	584.18248
324.028	591.60898
324.354	590.54827
324.681	573.56701
325.008	595.8511
325.334	600.09208
325.661	571.44303
325.987	575.69069
326.314	609.63015
326.64	609.63015
326.966	594.79068
327.293	597.97173
327.619	585.24363
327.945	566.13178
328.271	585.24363
328.597	577.81408
328.923	590.54827
329.249	609.63015
329.575	584.18248
329.901	580.99861
330.227	592.66961
330.552	590.54827
330.878	588.42663
331.204	587.3657
331.529	573.56701
331.855	594.79068
332.18	611.74894
332.506	573.56701
332.831	541.6757
333.156	597.97173
333.482	612.80824
333.807	571.44303
334.132	567.19418
334.457	585.24363
334.782	606.45143
335.107	592.66961
335.432	588.42663
335.757	572.50506
336.082	566.13178
336.407	608.57064
336.732	586.3047
337.057	541.6757
337.381	537.41832
337.706	549.12314
338.031	569.31875
338.355	561.88144
338.68	573.56701
339.004	575.69069
339.329	587.3657
339.653	588.42663
339.977	564.00676
340.301	579.93717
340.626	582.05997
340.95	590.54827
341.274	591.60898
341.598	584.18248
341.922	600.09208
342.246	588.42663
342.57	585.24363
342.894	591.60898
343.218	600.09208
343.541	597.97173
343.865	569.31875
344.189	567.19418
344.512	588.42663
344.836	613.86746
345.159	580.99861
345.483	548.05945
345.806	565.06931
346.13	582.05997
346.453	579.93717
346.776	582.05997
347.099	589.48748
347.423	601.15215
347.746	609.63015
348.069	573.56701
348.392	564.00676
348.715	582.05997
349.038	582.05997
349.361	583.12126
349.683	578.87566
350.006	593.73018
350.329	597.97173
350.652	580.99861
350.974	573.56701
351.297	586.3047
351.619	595.8511
351.942	577.81408
352.264	574.62889
352.587	583.12126
352.909	570.38093
353.231	570.38093
353.554	585.24363
353.876	566.13178
354.198	567.19418
354.52	576.75242
354.842	566.13178
355.164	576.75242
355.486	621.28009
355.808	597.97173
356.13	552.31374
356.452	620.22135
356.773	635.0375
357.095	572.50506
357.417	565.06931
357.738	574.62889
358.06	588.42663
358.381	600.09208
358.703	601.15215
359.024	573.56701
359.346	559.75581
359.667	576.75242
359.988	575.69069
360.309	583.12126
360.631	580.99861
360.952	586.3047
361.273	586.3047
361.594	577.81408
361.915	585.24363
362.236	565.06931
362.557	564.00676
362.878	583.12126
363.198	576.75242
363.519	574.62889
363.84	579.93717
364.16	603.27207
364.481	620.22135
364.802	588.42663
365.122	602.21215
365.443	632.92172
365.763	596.91145
366.083	572.50506
366.404	576.75242
366.724	588.42663
367.044	575.69069
367.364	577.81408
367.685	593.73018
368.005	577.81408
368.325	570.38093
368.645	553.37712
368.965	554.44043
369.284	571.44303
369.604	560.81866
369.924	597.97173
370.244	644.55518
370.564	596.91145
370.883	542.73986
371.203	586.3047
371.522	599.03194
371.842	578.87566
372.161	565.06931
372.481	542.73986
372.8	556.56681
373.119	555.50366
373.439	571.44303
373.758	621.28009
374.077	605.39171
374.396	572.50506
374.715	552.31374
375.034	553.37712
375.353	604.33193
375.672	603.27207
375.991	582.05997
376.31	582.05997
376.629	567.19418
376.948	579.93717
377.266	573.56701
377.585	571.44303
377.904	605.39171
378.222	576.75242
378.541	534.22446
378.859	565.06931
379.178	582.05997
379.496	558.69289
379.814	565.06931
380.133	558.69289
380.451	543.80393
380.769	532.09483
381.087	543.80393
381.405	562.94414
381.723	554.44043
382.041	555.50366
382.359	576.75242
382.677	606.45143
382.995	588.42663
383.313	552.31374
383.631	565.06931
383.949	586.3047
384.266	600.09208
384.584	590.54827
384.901	558.69289
385.219	564.00676
385.537	587.3657
385.854	559.75581
386.171	532.09483
386.489	556.56681
386.806	571.44303
387.123	583.12126
387.441	580.99861
387.758	587.3657
388.075	602.21215
388.392	582.05997
388.709	557.62989
389.026	558.69289
389.343	569.31875
389.66	607.51107
389.977	626.57276
390.294	604.33193
390.61	593.73018
390.927	610.68958
391.244	610.68958
391.56	589.48748
391.877	566.13178
392.193	567.19418
392.51	557.62989
392.826	560.81866
393.143	568.25651
393.459	562.94414
393.775	576.75242
394.092	560.81866
394.408	566.13178
394.724	575.69069
395.04	571.44303
395.356	570.38093
395.672	590.54827
395.988	606.45143
396.304	601.15215
396.62	579.93717
396.936	582.05997
397.252	559.75581
397.567	555.50366
397.883	579.93717
398.199	548.05945
398.514	524.63863
398.83	531.0299
399.146	587.3657
399.461	605.39171
399.777	580.99861
400.092	586.3047
400.407	578.87566
400.723	564.00676
401.038	543.80393
401.353	533.15969
401.668	566.13178
401.983	583.12126
402.298	591.60898
402.613	601.15215
402.928	597.97173
403.243	569.31875
403.558	556.56681
403.873	570.38093
404.188	552.31374
404.503	543.80393
404.817	551.25029
405.132	552.31374
405.447	569.31875
405.761	587.3657
406.076	582.05997
406.39	587.3657
406.705	568.25651
407.019	562.94414
407.334	559.75581
407.648	569.31875
407.962	591.60898
408.276	597.97173
408.591	583.12126
408.905	553.37712
409.219	576.75242
409.533	612.80824
409.847	620.22135
410.161	586.3047
410.475	560.81866
410.789	589.48748
411.102	600.09208
411.416	604.33193
411.73	606.45143
412.044	595.8511
412.357	596.91145
412.671	583.12126
412.984	568.25651
413.298	560.81866
413.611	590.54827
413.925	608.57064
414.238	574.62889
414.552	557.62989
414.865	569.31875
415.178	573.56701
415.491	565.06931
415.804	586.3047
416.118	582.05997
416.431	551.25029
416.744	542.73986
417.057	520.37619
417.37	534.22446
417.683	590.54827
417.995	615.9857
418.308	579.93717
418.621	559.75581
418.934	566.13178
419.246	585.24363
419.559	601.15215
419.872	580.99861
420.184	568.25651
420.497	568.25651
420.809	571.44303
421.121	580.99861
421.434	577.81408
421.746	582.05997
422.058	593.73018
422.371	582.05997
422.683	568.25651
422.995	559.75581
423.307	572.50506
423.619	591.60898
423.931	567.19418
424.243	585.24363
424.555	584.18248
424.867	562.94414
425.179	599.03194
425.491	594.79068
425.802	571.44303
426.114	556.56681
426.426	537.41832
426.737	556.56681
427.049	559.75581
427.361	575.69069
427.672	589.48748
427.984	575.69069
428.295	577.81408
428.606	593.73018
428.918	612.80824
429.229	620.22135
429.54	625.51436
429.851	591.60898
430.163	558.69289
430.474	570.38093
430.785	568.25651
431.096	552.31374
431.407	556.56681
431.718	568.25651
432.029	599.03194
432.339	577.81408
432.65	561.88144
432.961	578.87566
433.272	573.56701
433.582	586.3047
433.893	588.42663
434.204	586.3047
434.514	560.81866
434.825	553.37712
435.135	565.06931
435.446	568.25651
435.756	594.79068
436.066	586.3047
436.377	579.93717
436.687	570.38093
436.997	564.00676
437.307	572.50506
437.617	571.44303
437.927	561.88144
438.237	574.62889
438.547	572.50506
438.857	564.00676
439.167	586.3047
439.477	591.60898
439.787	575.69069
440.097	556.56681
440.407	575.69069
440.716	582.05997
441.026	592.66961
441.336	593.73018
441.645	584.18248
441.955	561.88144
442.264	543.80393
442.574	566.13178
442.883	584.18248
443.192	583.12126
443.502	593.73018
443.811	605.39171
444.12	575.69069
444.429	575.69069
444.739	600.09208
445.048	600.09208
445.357	604.33193
445.666	597.97173
445.975	589.48748
446.284	592.66961
446.593	591.60898
446.901	583.12126
447.21	608.57064
447.519	623.39736
447.828	600.09208
448.136	603.27207
448.445	597.97173
448.754	587.3657
449.062	576.75242
449.371	589.48748
449.679	583.12126
449.988	557.62989
450.296	567.19418
450.605	540.61148
450.913	545.93185
451.221	604.33193
451.529	619.16254
451.838	589.48748
452.146	582.05997
452.454	604.33193
452.762	618.10366
453.07	595.8511
453.378	575.69069
453.686	576.75242
453.994	589.48748
454.302	604.33193
454.609	566.13178
454.917	552.31374
455.225	582.05997
455.533	592.66961
455.84	555.50366
456.148	538.48278
456.455	566.13178
456.763	588.42663
457.07	603.27207
457.378	626.57276
457.685	613.86746
457.993	590.54827
458.3	564.00676
458.607	548.05945
458.915	569.31875
459.222	565.06931
459.529	573.56701
459.836	582.05997
460.143	565.06931
460.45	574.62889
460.757	590.54827
461.064	580.99861
461.371	575.69069
461.678	558.69289
461.985	557.62989
462.292	586.3047
462.598	574.62889
462.905	574.62889
463.212	603.27207
463.518	603.27207
463.825	603.27207
464.131	603.27207
464.438	592.66961
464.744	586.3047
465.051	562.94414
465.357	565.06931
465.664	602.21215
465.97	588.42663
466.276	567.19418
466.582	601.15215
466.889	592.66961
467.195	574.62889
467.501	550.18675
467.807	576.75242
468.113	585.24363
468.419	548.05945
468.725	575.69069
469.031	590.54827
469.337	628.68935
469.642	585.24363
469.948	524.63863
470.254	574.62889
470.56	604.33193
470.865	596.91145
471.171	585.24363
471.477	595.8511
471.782	596.91145
472.088	572.50506
472.393	622.33876
472.698	625.51436
473.004	585.24363
473.309	602.21215
473.614	575.69069
473.92	551.25029
474.225	560.81866
474.53	545.93185
474.835	536.35378
475.14	567.19418
475.445	577.81408
475.75	569.31875
476.055	575.69069
476.36	588.42663
476.665	590.54827
476.97	591.60898
477.275	588.42663
477.58	587.3657
477.885	600.09208
478.189	580.99861
478.494	582.05997
478.799	583.12126
479.103	570.38093
479.408	607.51107
479.712	603.27207
480.017	595.8511
480.321	592.66961
480.625	575.69069
480.93	565.06931
481.234	562.94414
481.538	585.24363
481.843	592.66961
482.147	611.74894
482.451	609.63015
482.755	575.69069
483.059	550.18675
483.363	549.12314
483.667	574.62889
483.971	591.60898
484.275	587.3657
484.579	574.62889
484.883	561.88144
485.187	576.75242
485.49	579.93717
485.794	589.48748
486.098	575.69069
486.401	537.41832
486.705	560.81866
487.009	567.19418
487.312	567.19418
487.616	586.3047
487.919	567.19418
488.222	560.81866
488.526	580.99861
488.829	580.99861
489.132	573.56701
489.436	603.27207
489.739	580.99861
490.042	534.22446
490.345	564.00676
490.648	573.56701
490.951	587.3657
491.254	609.63015
491.557	569.31875
491.86	539.54717
492.163	575.69069
492.466	573.56701
492.769	567.19418
493.072	585.24363
493.375	551.25029
493.677	558.69289
493.98	586.3047
494.283	573.56701
494.585	559.75581
494.888	575.69069
495.19	595.8511
495.493	603.27207
495.795	596.91145
496.098	571.44303
496.4	595.8511
496.702	576.75242
497.005	557.62989
497.307	602.21215
497.609	582.05997
497.911	591.60898
498.213	592.66961
498.515	576.75242
498.818	602.21215
499.12	573.56701
499.422	576.75242
499.723	584.18248
500.025	599.03194
500.327	617.04472
500.629	593.73018
500.931	586.3047
501.233	611.74894
501.534	592.66961
501.836	569.31875
502.138	588.42663
502.439	585.24363
502.741	584.18248
503.042	571.44303
503.344	569.31875
503.645	594.79068
503.947	568.25651
504.248	572.50506
504.55	597.97173
504.851	578.87566
505.152	561.88144
505.453	543.80393
505.755	579.93717
506.056	591.60898
506.357	582.05997
506.658	609.63015
506.959	602.21215
507.26	591.60898
507.561	590.54827
507.862	568.25651
508.163	577.81408
508.464	587.3657
508.764	585.24363
509.065	578.87566
509.366	578.87566
509.667	596.91145
509.967	576.75242
510.268	546.99569
510.569	580.99861
510.869	609.63015
511.17	602.21215
511.47	580.99861
511.771	562.94414
512.071	607.51107
512.371	595.8511
512.672	571.44303
512.972	591.60898
513.272	584.18248
513.573	583.12126
513.873	576.75242
514.173	560.81866
514.473	552.31374
514.773	576.75242
515.073	588.42663
515.373	587.3657
515.673	549.12314
515.973	537.41832
516.273	573.56701
516.573	559.75581
516.873	576.75242
517.172	588.42663
517.472	574.62889
517.772	575.69069
518.072	562.94414
518.371	565.06931
518.671	570.38093
518.97	556.56681
519.27	555.50366
519.569	585.24363
519.869	589.48748
520.168	601.15215
520.468	592.66961
520.767	578.87566
521.066	588.42663
521.366	565.06931
521.665	553.37712
521.964	576.75242
522.263	585.24363
522.562	568.25651
522.861	568.25651
523.161	580.99861
523.46	569.31875
523.759	571.44303
524.057	606.45143
524.356	572.50506
524.655	536.35378
524.954	558.69289
525.253	591.60898
525.552	592.66961
525.85	578.87566
526.149	582.05997
526.448	572.50506
526.746	556.56681
527.045	570.38093
527.344	589.48748
527.642	600.09208
527.941	603.27207
528.239	583.12126
528.537	558.69289
528.836	567.19418
529.134	589.48748
529.432	600.09208
529.731	588.42663
530.029	594.79068
530.327	573.56701
530.625	556.56681
530.923	568.25651
531.221	579.93717
531.52	607.51107
531.818	555.50366
532.116	537.41832
532.413	579.93717
532.711	584.18248
533.009	567.19418
533.307	556.56681
533.605	572.50506
533.903	586.3047
534.2	564.00676
534.498	566.13178
534.796	582.05997
535.093	580.99861
535.391	578.87566
535.689	560.81866
535.986	551.25029
536.284	552.31374
536.581	562.94414
536.878	608.57064
537.176	627.63109
537.473	610.68958
537.77	603.27207
538.068	595.8511
538.365	589.48748
538.662	576.75242
538.959	588.42663
539.256	578.87566
539.554	559.75581
539.851	570.38093
