Data from dark_beginning_ST026791__105__1203.txt Node

Date: Mon Aug 18 22:09:55 AEST 2025
User: mathewyoussef
Spectrometer: ST02679
Trigger mode: 0
Integration Time (sec): 6.653700E-1
Scans to average: 1
Nonlinearity correction enabled: true
Boxcar width: 0
Storing dark spectrum: false
XAxis mode: Wavelengths
Number of Pixels in Spectrum: 1516
>>>>>Begin Spectral Data<<<<<
187.304	567.19418
187.653	600.09208
188.002	617.04472
188.351	572.50506
188.7	578.87566
189.048	595.8511
189.397	607.51107
189.746	590.54827
190.094	555.50366
190.443	585.24363
190.791	627.63109
191.14	618.10366
191.488	585.24363
191.837	558.69289
192.185	567.19418
192.533	597.97173
192.881	605.39171
193.229	591.60898
193.577	594.79068
193.925	586.3047
194.273	572.50506
194.621	578.87566
194.969	590.54827
195.317	584.18248
195.664	572.50506
196.012	576.75242
196.359	555.50366
196.707	572.50506
197.054	585.24363
197.402	577.81408
197.749	589.48748
198.096	594.79068
198.443	582.05997
198.791	553.37712
199.138	539.54717
199.485	569.31875
199.832	608.57064
200.179	604.33193
200.525	600.09208
200.872	609.63015
201.219	611.74894
201.566	627.63109
201.912	615.9857
202.259	596.91145
202.605	596.91145
202.952	606.45143
203.298	586.3047
203.644	573.56701
203.991	612.80824
204.337	587.3657
204.683	561.88144
205.029	574.62889
205.375	579.93717
205.721	593.73018
206.067	611.74894
206.413	591.60898
206.759	576.75242
207.104	574.62889
207.45	561.88144
207.796	586.3047
208.141	597.97173
208.487	593.73018
208.832	584.18248
209.177	559.75581
209.523	580.99861
209.868	588.42663
210.213	568.25651
210.558	550.18675
210.903	550.18675
211.248	544.86793
211.593	536.35378
211.938	566.13178
212.283	575.69069
212.628	576.75242
212.973	546.99569
213.317	550.18675
213.662	590.54827
214.007	592.66961
214.351	575.69069
214.696	569.31875
215.04	582.05997
215.384	605.39171
215.729	595.8511
216.073	585.24363
216.417	584.18248
216.761	569.31875
217.105	601.15215
217.449	620.22135
217.793	613.86746
218.137	618.10366
218.481	601.15215
218.824	607.51107
219.168	622.33876
219.512	597.97173
219.855	562.94414
220.199	560.81866
220.542	585.24363
220.886	579.93717
221.229	566.13178
221.572	587.3657
221.916	566.13178
222.259	553.37712
222.602	586.3047
222.945	565.06931
223.288	540.61148
223.631	566.13178
223.974	569.31875
224.317	573.56701
224.659	582.05997
225.002	566.13178
225.345	566.13178
225.687	565.06931
226.03	586.3047
226.372	591.60898
226.715	587.3657
227.057	573.56701
227.4	566.13178
227.742	589.48748
228.084	561.88144
228.426	565.06931
228.768	586.3047
229.11	565.06931
229.452	560.81866
229.794	584.18248
230.136	592.66961
230.478	583.12126
230.82	569.31875
231.161	560.81866
231.503	599.03194
231.845	609.63015
232.186	622.33876
232.528	626.57276
232.869	585.24363
233.21	589.48748
233.552	588.42663
233.893	577.81408
234.234	570.38093
234.575	580.99861
234.916	599.03194
235.257	599.03194
235.598	607.51107
235.939	604.33193
236.28	592.66961
236.621	574.62889
236.961	591.60898
237.302	602.21215
237.643	566.13178
237.983	554.44043
238.324	577.81408
238.664	611.74894
239.005	608.57064
239.345	580.99861
239.685	553.37712
240.025	564.00676
240.366	564.00676
240.706	546.99569
241.046	579.93717
241.386	580.99861
241.726	568.25651
242.066	566.13178
242.405	556.56681
242.745	571.44303
243.085	572.50506
243.425	583.12126
243.764	606.45143
244.104	640.32577
244.443	628.68935
244.783	607.51107
245.122	613.86746
245.461	584.18248
245.801	583.12126
246.14	584.18248
246.479	573.56701
246.818	574.62889
247.157	608.57064
247.496	627.63109
247.835	601.15215
248.174	583.12126
248.513	566.13178
248.852	577.81408
249.19	584.18248
249.529	594.79068
249.868	617.04472
250.206	599.03194
250.545	607.51107
250.883	599.03194
251.221	576.75242
251.56	588.42663
251.898	575.69069
252.236	577.81408
252.574	589.48748
252.912	589.48748
253.25	580.99861
253.588	576.75242
253.926	575.69069
254.264	573.56701
254.602	597.97173
254.94	614.92662
255.278	615.9857
255.615	607.51107
255.953	609.63015
256.29	612.80824
256.628	602.21215
256.965	589.48748
257.303	596.91145
257.64	625.51436
257.977	589.48748
258.314	568.25651
258.652	571.44303
258.989	555.50366
259.326	568.25651
259.663	584.18248
260	590.54827
260.337	572.50506
260.673	545.93185
261.01	559.75581
261.347	597.97173
261.684	576.75242
262.02	589.48748
262.357	622.33876
262.693	612.80824
263.03	607.51107
263.366	597.97173
263.702	578.87566
264.039	558.69289
264.375	572.50506
264.711	591.60898
265.047	575.69069
265.383	554.44043
265.719	565.06931
266.055	589.48748
266.391	622.33876
266.727	614.92662
267.063	590.54827
267.399	592.66961
267.734	596.91145
268.07	587.3657
268.405	599.03194
268.741	628.68935
269.076	607.51107
269.412	554.44043
269.747	558.69289
270.082	579.93717
270.418	573.56701
270.753	591.60898
271.088	584.18248
271.423	558.69289
271.758	561.88144
272.093	590.54827
272.428	586.3047
272.763	592.66961
273.098	606.45143
273.433	592.66961
273.767	597.97173
274.102	577.81408
274.436	555.50366
274.771	588.42663
275.106	599.03194
275.44	599.03194
275.774	605.39171
276.109	590.54827
276.443	583.12126
276.777	571.44303
277.111	580.99861
277.445	575.69069
277.78	557.62989
278.114	564.00676
278.447	566.13178
278.781	569.31875
279.115	592.66961
279.449	588.42663
279.783	571.44303
280.116	572.50506
280.45	570.38093
280.784	585.24363
281.117	592.66961
281.451	589.48748
281.784	608.57064
282.117	610.68958
282.451	590.54827
282.784	578.87566
283.117	582.05997
283.45	594.79068
283.783	573.56701
284.116	591.60898
284.449	621.28009
284.782	624.4559
285.115	626.57276
285.448	593.73018
285.781	579.93717
286.114	572.50506
286.446	583.12126
286.779	615.9857
287.111	594.79068
287.444	582.05997
287.776	601.15215
288.109	596.91145
288.441	587.3657
288.773	583.12126
289.106	615.9857
289.438	597.97173
289.77	574.62889
290.102	591.60898
290.434	600.09208
290.766	611.74894
291.098	557.62989
291.43	549.12314
291.762	592.66961
292.094	591.60898
292.425	587.3657
292.757	591.60898
293.089	591.60898
293.42	564.00676
293.752	544.86793
294.083	536.35378
294.414	564.00676
294.746	603.27207
295.077	583.12126
295.408	572.50506
295.74	606.45143
296.071	602.21215
296.402	553.37712
296.733	562.94414
297.064	578.87566
297.395	573.56701
297.726	585.24363
298.056	597.97173
298.387	592.66961
298.718	589.48748
299.049	615.9857
299.379	577.81408
299.71	558.69289
300.04	585.24363
300.371	567.19418
300.701	564.00676
301.031	577.81408
301.362	578.87566
301.692	576.75242
302.022	574.62889
302.352	576.75242
302.682	560.81866
303.012	538.48278
303.342	570.38093
303.672	595.8511
304.002	599.03194
304.332	588.42663
304.662	576.75242
304.992	592.66961
305.321	590.54827
305.651	568.25651
305.98	573.56701
306.31	577.81408
306.639	559.75581
306.969	566.13178
307.298	557.62989
307.628	556.56681
307.957	569.31875
308.286	580.99861
308.615	593.73018
308.944	590.54827
309.273	562.94414
309.602	554.44043
309.931	586.3047
310.26	585.24363
310.589	571.44303
310.918	548.05945
311.247	576.75242
311.575	599.03194
311.904	584.18248
312.233	591.60898
312.561	580.99861
312.89	571.44303
313.218	612.80824
313.546	607.51107
313.875	580.99861
314.203	595.8511
314.531	573.56701
314.859	571.44303
315.188	592.66961
315.516	604.33193
315.844	594.79068
316.172	605.39171
316.5	615.9857
316.827	603.27207
317.155	587.3657
317.483	580.99861
317.811	574.62889
318.138	564.00676
318.466	583.12126
318.794	578.87566
319.121	569.31875
319.449	577.81408
319.776	592.66961
320.103	591.60898
320.431	608.57064
320.758	609.63015
321.085	575.69069
321.412	570.38093
321.739	584.18248
322.066	609.63015
322.393	593.73018
322.72	578.87566
323.047	588.42663
323.374	609.63015
323.701	628.68935
324.028	607.51107
324.354	601.15215
324.681	582.05997
325.008	568.25651
325.334	592.66961
325.661	592.66961
325.987	590.54827
326.314	613.86746
326.64	607.51107
326.966	591.60898
327.293	575.69069
327.619	574.62889
327.945	587.3657
328.271	588.42663
328.597	587.3657
328.923	556.56681
329.249	560.81866
329.575	580.99861
329.901	590.54827
330.227	600.09208
330.552	613.86746
330.878	606.45143
331.204	577.81408
331.529	576.75242
331.855	610.68958
332.18	618.10366
332.506	560.81866
332.831	549.12314
333.156	580.99861
333.482	595.8511
333.807	587.3657
334.132	587.3657
334.457	592.66961
334.782	584.18248
335.107	568.25651
335.432	558.69289
335.757	558.69289
336.082	566.13178
336.407	587.3657
336.732	608.57064
337.057	597.97173
337.381	571.44303
337.706	588.42663
338.031	596.91145
338.355	589.48748
338.68	599.03194
339.004	575.69069
339.329	566.13178
339.653	585.24363
339.977	589.48748
340.301	586.3047
340.626	565.06931
340.95	578.87566
341.274	596.91145
341.598	582.05997
341.922	583.12126
342.246	592.66961
342.57	586.3047
342.894	591.60898
343.218	574.62889
343.541	567.19418
343.865	580.99861
344.189	568.25651
344.512	564.00676
344.836	554.44043
345.159	551.25029
345.483	572.50506
345.806	584.18248
346.13	584.18248
346.453	596.91145
346.776	587.3657
347.099	561.88144
347.423	582.05997
347.746	575.69069
348.069	552.31374
348.392	541.6757
348.715	546.99569
349.038	570.38093
349.361	567.19418
349.683	573.56701
350.006	562.94414
350.329	542.73986
350.652	572.50506
350.974	572.50506
351.297	560.81866
351.619	573.56701
351.942	587.3657
352.264	596.91145
352.587	574.62889
352.909	576.75242
353.231	577.81408
353.554	569.31875
353.876	579.93717
354.198	583.12126
354.52	597.97173
354.842	577.81408
355.164	585.24363
355.486	603.27207
355.808	572.50506
356.13	588.42663
356.452	625.51436
356.773	606.45143
357.095	565.06931
357.417	578.87566
357.738	579.93717
358.06	571.44303
358.381	585.24363
358.703	578.87566
359.024	574.62889
359.346	568.25651
359.667	571.44303
359.988	568.25651
360.309	584.18248
360.631	610.68958
360.952	592.66961
361.273	552.31374
361.594	548.05945
361.915	565.06931
362.236	564.00676
362.557	588.42663
362.878	585.24363
363.198	585.24363
363.519	591.60898
363.84	558.69289
364.16	572.50506
364.481	591.60898
364.802	591.60898
365.122	610.68958
365.443	585.24363
365.763	562.94414
366.083	582.05997
366.404	584.18248
366.724	578.87566
367.044	572.50506
367.364	567.19418
367.685	576.75242
368.005	590.54827
368.325	591.60898
368.645	585.24363
368.965	567.19418
369.284	564.00676
369.604	561.88144
369.924	589.48748
370.244	623.39736
370.564	604.33193
370.883	603.27207
371.203	618.10366
371.522	605.39171
371.842	587.3657
372.161	601.15215
372.481	593.73018
372.8	571.44303
373.119	579.93717
373.439	588.42663
373.758	604.33193
374.077	626.57276
374.396	606.45143
374.715	567.19418
375.034	554.44043
375.353	551.25029
375.672	558.69289
375.991	583.12126
376.31	597.97173
376.629	606.45143
376.948	610.68958
377.266	606.45143
377.585	626.57276
377.904	604.33193
378.222	564.00676
378.541	577.81408
378.859	590.54827
379.178	558.69289
379.496	536.35378
379.814	534.22446
380.133	572.50506
380.451	619.16254
380.769	588.42663
381.087	553.37712
381.405	544.86793
381.723	549.12314
382.041	549.12314
382.359	577.81408
382.677	589.48748
382.995	578.87566
383.313	596.91145
383.631	591.60898
383.949	585.24363
384.266	576.75242
384.584	564.00676
384.901	572.50506
385.219	595.8511
385.537	601.15215
385.854	578.87566
386.171	566.13178
386.489	588.42663
386.806	590.54827
387.123	588.42663
387.441	600.09208
387.758	609.63015
388.075	593.73018
388.392	567.19418
388.709	557.62989
389.026	556.56681
389.343	567.19418
389.66	587.3657
389.977	612.80824
390.294	589.48748
390.61	570.38093
390.927	568.25651
391.244	568.25651
391.56	574.62889
391.877	586.3047
392.193	583.12126
392.51	584.18248
392.826	594.79068
393.143	578.87566
393.459	577.81408
393.775	586.3047
394.092	559.75581
394.408	555.50366
394.724	564.00676
395.04	548.05945
395.356	535.28916
395.672	558.69289
395.988	584.18248
396.304	561.88144
396.62	574.62889
396.936	599.03194
397.252	589.48748
397.567	568.25651
397.883	564.00676
398.199	588.42663
398.514	602.21215
398.83	590.54827
399.146	574.62889
399.461	577.81408
399.777	582.05997
400.092	568.25651
400.407	575.69069
400.723	587.3657
401.038	575.69069
401.353	583.12126
401.668	596.91145
401.983	594.79068
402.298	585.24363
402.613	575.69069
402.928	577.81408
403.243	580.99861
403.558	572.50506
403.873	591.60898
404.188	579.93717
404.503	554.44043
404.817	571.44303
405.132	565.06931
405.447	589.48748
405.761	597.97173
406.076	606.45143
406.39	603.27207
406.705	586.3047
407.019	578.87566
407.334	554.44043
407.648	564.00676
407.962	536.35378
408.276	536.35378
408.591	590.54827
408.905	590.54827
409.219	588.42663
409.533	589.48748
409.847	586.3047
410.161	601.15215
410.475	604.33193
410.789	593.73018
411.102	600.09208
411.416	641.38322
411.73	630.80567
412.044	584.18248
412.357	576.75242
412.671	576.75242
412.984	564.00676
413.298	588.42663
413.611	603.27207
413.925	597.97173
414.238	609.63015
414.552	610.68958
414.865	597.97173
415.178	582.05997
415.491	579.93717
415.804	591.60898
416.118	587.3657
416.431	576.75242
416.744	574.62889
417.057	570.38093
417.37	570.38093
417.683	569.31875
417.995	601.15215
418.308	610.68958
418.621	592.66961
418.934	572.50506
419.246	582.05997
419.559	619.16254
419.872	597.97173
420.184	562.94414
420.497	568.25651
420.809	574.62889
421.121	559.75581
421.434	570.38093
421.746	567.19418
422.058	551.25029
422.371	570.38093
422.683	582.05997
422.995	585.24363
423.307	586.3047
423.619	572.50506
423.931	579.93717
424.243	585.24363
424.555	569.31875
424.867	564.00676
425.179	597.97173
425.491	638.21066
425.802	596.91145
426.114	559.75581
426.426	562.94414
426.737	568.25651
427.049	569.31875
427.361	585.24363
427.672	600.09208
427.984	599.03194
428.295	599.03194
428.606	584.18248
428.918	608.57064
429.229	656.18062
429.54	618.10366
429.851	562.94414
430.163	572.50506
430.474	597.97173
430.785	603.27207
431.096	572.50506
431.407	559.75581
431.718	546.99569
432.029	560.81866
432.339	574.62889
432.65	586.3047
432.961	579.93717
433.272	541.6757
433.582	567.19418
433.893	591.60898
434.204	588.42663
434.514	572.50506
434.825	539.54717
435.135	566.13178
435.446	594.79068
435.756	597.97173
436.066	601.15215
436.377	623.39736
436.687	610.68958
436.997	579.93717
437.307	585.24363
437.617	585.24363
437.927	583.12126
438.237	565.06931
438.547	568.25651
438.857	595.8511
439.167	594.79068
439.477	569.31875
439.787	585.24363
440.097	571.44303
440.407	556.56681
440.716	579.93717
441.026	583.12126
441.336	573.56701
441.645	567.19418
441.955	571.44303
442.264	582.05997
442.574	604.33193
442.883	606.45143
443.192	611.74894
443.502	597.97173
443.811	584.18248
444.12	591.60898
444.429	593.73018
444.739	580.99861
445.048	564.00676
445.357	596.91145
445.666	592.66961
445.975	582.05997
446.284	585.24363
446.593	590.54827
446.901	599.03194
447.21	582.05997
447.519	572.50506
447.828	592.66961
448.136	592.66961
448.445	574.62889
448.754	568.25651
449.062	586.3047
449.371	590.54827
449.679	554.44043
449.988	560.81866
450.296	572.50506
450.605	589.48748
450.913	637.15301
451.221	643.49793
451.529	630.80567
451.838	609.63015
452.146	592.66961
452.454	597.97173
452.762	618.10366
453.07	613.86746
453.378	582.05997
453.686	583.12126
453.994	628.68935
454.302	618.10366
454.609	560.81866
454.917	568.25651
455.225	584.18248
455.533	564.00676
455.84	576.75242
456.148	606.45143
456.455	588.42663
456.763	590.54827
457.07	625.51436
457.378	627.63109
457.685	574.62889
457.993	544.86793
458.3	548.05945
458.607	565.06931
458.915	592.66961
459.222	577.81408
459.529	551.25029
459.836	566.13178
460.143	562.94414
460.45	557.62989
460.757	575.69069
461.064	576.75242
461.371	574.62889
461.678	594.79068
461.985	596.91145
462.292	578.87566
462.598	582.05997
462.905	567.19418
463.212	567.19418
463.518	567.19418
463.825	582.05997
464.131	629.74755
464.438	591.60898
464.744	535.28916
465.051	558.69289
465.357	591.60898
465.664	595.8511
465.97	602.21215
466.276	596.91145
466.582	580.99861
466.889	579.93717
467.195	579.93717
467.501	575.69069
467.807	570.38093
468.113	585.24363
468.419	591.60898
468.725	577.81408
469.031	584.18248
469.337	622.33876
469.642	608.57064
469.948	570.38093
470.254	596.91145
470.56	589.48748
470.865	560.81866
471.171	562.94414
471.477	584.18248
471.782	586.3047
472.088	583.12126
472.393	603.27207
472.698	578.87566
473.004	567.19418
473.309	582.05997
473.614	585.24363
473.92	579.93717
474.225	570.38093
474.53	587.3657
474.835	590.54827
475.14	570.38093
475.445	593.73018
475.75	593.73018
476.055	584.18248
476.36	593.73018
476.665	602.21215
476.97	608.57064
477.275	586.3047
477.58	596.91145
477.885	600.09208
478.189	583.12126
478.494	575.69069
478.799	592.66961
479.103	564.00676
479.408	538.48278
479.712	573.56701
480.017	606.45143
480.321	596.91145
480.625	596.91145
480.93	594.79068
481.234	554.44043
481.538	566.13178
481.843	594.79068
482.147	602.21215
482.451	609.63015
482.755	614.92662
483.059	595.8511
483.363	585.24363
483.667	606.45143
483.971	601.15215
484.275	575.69069
484.579	583.12126
484.883	578.87566
485.187	572.50506
485.49	585.24363
485.794	574.62889
486.098	583.12126
486.401	587.3657
486.705	562.94414
487.009	556.56681
487.312	590.54827
487.616	596.91145
487.919	575.69069
488.222	570.38093
488.526	566.13178
488.829	587.3657
489.132	574.62889
489.436	568.25651
489.739	571.44303
490.042	574.62889
490.345	585.24363
490.648	589.48748
490.951	580.99861
491.254	584.18248
491.557	609.63015
491.86	584.18248
492.163	567.19418
492.466	550.18675
492.769	541.6757
493.072	592.66961
493.375	610.68958
493.677	597.97173
493.98	601.15215
494.283	603.27207
494.585	582.05997
494.888	580.99861
495.19	596.91145
495.493	568.25651
495.795	569.31875
496.098	612.80824
496.4	617.04472
496.702	564.00676
497.005	579.93717
497.307	620.22135
497.609	565.06931
497.911	567.19418
498.213	599.03194
498.515	608.57064
498.818	651.95411
499.12	618.10366
499.422	584.18248
499.723	576.75242
500.025	580.99861
500.327	592.66961
500.629	583.12126
500.931	603.27207
501.233	615.9857
501.534	595.8511
501.836	574.62889
502.138	565.06931
502.439	579.93717
502.741	552.31374
503.042	531.0299
503.344	586.3047
503.645	635.0375
503.947	635.0375
504.248	608.57064
504.55	580.99861
504.851	577.81408
505.152	583.12126
505.453	580.99861
505.755	624.4559
506.056	646.66949
506.357	619.16254
506.658	606.45143
506.959	597.97173
507.26	592.66961
507.561	580.99861
507.862	594.79068
508.163	593.73018
508.464	571.44303
508.764	596.91145
509.065	588.42663
509.366	587.3657
509.667	618.10366
509.967	603.27207
510.268	577.81408
510.569	571.44303
510.869	600.09208
511.17	601.15215
511.47	576.75242
511.771	586.3047
512.071	592.66961
512.371	594.79068
512.672	588.42663
512.972	577.81408
513.272	597.97173
513.573	597.97173
513.873	590.54827
514.173	595.8511
514.473	596.91145
514.773	595.8511
515.073	556.56681
515.373	554.44043
515.673	571.44303
515.973	559.75581
516.273	579.93717
516.573	624.4559
516.873	607.51107
517.172	594.79068
517.472	579.93717
517.772	557.62989
518.072	582.05997
518.371	594.79068
518.671	574.62889
518.97	571.44303
519.27	591.60898
519.569	599.03194
519.869	603.27207
520.168	595.8511
520.468	575.69069
520.767	570.38093
521.066	586.3047
521.366	590.54827
521.665	588.42663
521.964	571.44303
522.263	587.3657
522.562	587.3657
522.861	559.75581
523.161	591.60898
523.46	604.33193
523.759	577.81408
524.057	599.03194
524.356	612.80824
524.655	571.44303
524.954	572.50506
525.253	591.60898
525.552	596.91145
525.85	607.51107
526.149	617.04472
526.448	590.54827
526.746	557.62989
527.045	569.31875
527.344	597.97173
527.642	627.63109
527.941	614.92662
528.239	565.06931
528.537	565.06931
528.836	577.81408
529.134	580.99861
529.432	583.12126
529.731	566.13178
530.029	586.3047
530.327	600.09208
530.625	592.66961
530.923	592.66961
531.221	594.79068
531.52	592.66961
531.818	584.18248
532.116	591.60898
532.413	603.27207
532.711	582.05997
533.009	600.09208
533.307	605.39171
533.605	586.3047
533.903	594.79068
534.2	587.3657
534.498	584.18248
534.796	586.3047
535.093	589.48748
535.391	589.48748
535.689	576.75242
535.986	576.75242
536.284	580.99861
536.581	583.12126
536.878	617.04472
537.176	592.66961
537.473	576.75242
537.77	621.28009
538.068	625.51436
538.365	590.54827
538.662	602.21215
538.959	609.63015
539.256	580.99861
539.554	595.8511
539.851	611.74894
