Data from dark_beginning_ST026791__168__1266.txt Node

Date: Mon Aug 18 22:11:20 AEST 2025
User: mathewyoussef
Spectrometer: ST02679
Trigger mode: 0
Integration Time (sec): 6.653700E-1
Scans to average: 1
Nonlinearity correction enabled: true
Boxcar width: 0
Storing dark spectrum: false
XAxis mode: Wavelengths
Number of Pixels in Spectrum: 1516
>>>>>Begin Spectral Data<<<<<
187.304	562.94414
187.653	562.94414
188.002	578.87566
188.351	544.86793
188.7	539.54717
189.048	585.24363
189.397	608.57064
189.746	574.62889
190.094	556.56681
190.443	551.25029
190.791	544.86793
191.14	574.62889
191.488	577.81408
191.837	560.81866
192.185	553.37712
192.533	569.31875
192.881	580.99861
193.229	569.31875
193.577	587.3657
193.925	589.48748
194.273	557.62989
194.621	550.18675
194.969	560.81866
195.317	584.18248
195.664	594.79068
196.012	584.18248
196.359	561.88144
196.707	568.25651
197.054	573.56701
197.402	550.18675
197.749	565.06931
198.096	590.54827
198.443	583.12126
198.791	574.62889
199.138	575.69069
199.485	582.05997
199.832	597.97173
200.179	590.54827
200.525	574.62889
200.872	568.25651
201.219	558.69289
201.566	584.18248
201.912	585.24363
202.259	558.69289
202.605	550.18675
202.952	557.62989
203.298	567.19418
203.644	566.13178
203.991	568.25651
204.337	579.93717
204.683	584.18248
205.029	546.99569
205.375	524.63863
205.721	561.88144
206.067	590.54827
206.413	584.18248
206.759	595.8511
207.104	571.44303
207.45	541.6757
207.796	574.62889
208.141	587.3657
208.487	566.13178
208.832	555.50366
209.177	566.13178
209.523	577.81408
209.868	570.38093
210.213	542.73986
210.558	540.61148
210.903	579.93717
211.248	585.24363
211.593	580.99861
211.938	576.75242
212.283	574.62889
212.628	551.25029
212.973	549.12314
213.317	567.19418
213.662	545.93185
214.007	524.63863
214.351	534.22446
214.696	541.6757
215.04	567.19418
215.384	573.56701
215.729	525.70404
216.073	535.28916
216.417	573.56701
216.761	588.42663
217.105	577.81408
217.449	572.50506
217.793	556.56681
218.137	546.99569
218.481	567.19418
218.824	580.99861
219.168	561.88144
219.512	562.94414
219.855	586.3047
220.199	553.37712
220.542	541.6757
220.886	584.18248
221.229	584.18248
221.572	580.99861
221.916	599.03194
222.259	562.94414
222.602	523.57314
222.945	537.41832
223.288	575.69069
223.631	582.05997
223.974	568.25651
224.317	586.3047
224.659	584.18248
225.002	572.50506
225.345	569.31875
225.687	557.62989
226.03	590.54827
226.372	569.31875
226.715	544.86793
227.057	559.75581
227.4	534.22446
227.742	555.50366
228.084	543.80393
228.426	533.15969
228.768	570.38093
229.11	556.56681
229.452	540.61148
229.794	561.88144
230.136	573.56701
230.478	551.25029
230.82	559.75581
231.161	578.87566
231.503	587.3657
231.845	565.06931
232.186	578.87566
232.528	595.8511
232.869	582.05997
233.21	582.05997
233.552	570.38093
233.893	559.75581
234.234	560.81866
234.575	593.73018
234.916	589.48748
235.257	566.13178
235.598	592.66961
235.939	583.12126
236.28	533.15969
236.621	548.05945
236.961	585.24363
237.302	586.3047
237.643	561.88144
237.983	562.94414
238.324	557.62989
238.664	575.69069
239.005	577.81408
239.345	575.69069
239.685	602.21215
240.025	582.05997
240.366	564.00676
240.706	568.25651
241.046	577.81408
241.386	565.06931
241.726	575.69069
242.066	571.44303
242.405	548.05945
242.745	587.3657
243.085	600.09208
243.425	556.56681
243.764	596.91145
244.104	641.38322
244.443	597.97173
244.783	559.75581
245.122	540.61148
245.461	564.00676
245.801	591.60898
246.14	571.44303
246.479	543.80393
246.818	569.31875
247.157	587.3657
247.496	570.38093
247.835	548.05945
248.174	535.28916
248.513	546.99569
248.852	567.19418
249.19	558.69289
249.529	565.06931
249.868	580.99861
250.206	548.05945
250.545	550.18675
250.883	567.19418
251.221	548.05945
251.56	551.25029
251.898	556.56681
252.236	577.81408
252.574	619.16254
252.912	594.79068
253.25	554.44043
253.588	560.81866
253.926	566.13178
254.264	562.94414
254.602	564.00676
254.94	564.00676
255.278	558.69289
255.615	542.73986
255.953	558.69289
256.29	578.87566
256.628	565.06931
256.965	550.18675
257.303	534.22446
257.64	536.35378
257.977	564.00676
258.314	579.93717
258.652	575.69069
258.989	567.19418
259.326	565.06931
259.663	577.81408
260	599.03194
260.337	572.50506
260.673	550.18675
261.01	567.19418
261.347	567.19418
261.684	560.81866
262.02	568.25651
262.357	583.12126
262.693	565.06931
263.03	546.99569
263.366	578.87566
263.702	580.99861
264.039	577.81408
264.375	584.18248
264.711	593.73018
265.047	571.44303
265.383	544.86793
265.719	561.88144
266.055	554.44043
266.391	551.25029
266.727	560.81866
267.063	558.69289
267.399	550.18675
267.734	542.73986
268.07	540.61148
268.405	557.62989
268.741	595.8511
269.076	591.60898
269.412	552.31374
269.747	558.69289
270.082	559.75581
270.418	578.87566
270.753	608.57064
271.088	557.62989
271.423	533.15969
271.758	551.25029
272.093	560.81866
272.428	575.69069
272.763	578.87566
273.098	568.25651
273.433	551.25029
273.767	555.50366
274.102	573.56701
274.436	560.81866
274.771	568.25651
275.106	572.50506
275.44	572.50506
275.774	589.48748
276.109	591.60898
276.443	570.38093
276.777	533.15969
277.111	564.00676
277.445	586.3047
277.78	582.05997
278.114	584.18248
278.447	570.38093
278.781	569.31875
279.115	584.18248
279.449	560.81866
279.783	569.31875
280.116	591.60898
280.45	576.75242
280.784	621.28009
281.117	615.9857
281.451	578.87566
281.784	639.26825
282.117	632.92172
282.451	574.62889
282.784	583.12126
283.117	578.87566
283.45	578.87566
283.783	578.87566
284.116	566.13178
284.449	554.44043
284.782	584.18248
285.115	629.74755
285.448	594.79068
285.781	560.81866
286.114	576.75242
286.446	574.62889
286.779	583.12126
287.111	572.50506
287.444	568.25651
287.776	576.75242
288.109	572.50506
288.441	576.75242
288.773	562.94414
289.106	582.05997
289.438	595.8511
289.77	568.25651
290.102	577.81408
290.434	561.88144
290.766	578.87566
291.098	589.48748
291.43	551.25029
291.762	567.19418
292.094	569.31875
292.425	544.86793
292.757	558.69289
293.089	586.3047
293.42	569.31875
293.752	555.50366
294.083	555.50366
294.414	550.18675
294.746	570.38093
295.077	574.62889
295.408	587.3657
295.74	599.03194
296.071	558.69289
296.402	560.81866
296.733	562.94414
297.064	542.73986
297.395	544.86793
297.726	589.48748
298.056	611.74894
298.387	574.62889
298.718	604.33193
299.049	597.97173
299.379	548.05945
299.71	571.44303
300.04	578.87566
300.371	583.12126
300.701	585.24363
301.031	569.31875
301.362	557.62989
301.692	565.06931
302.022	588.42663
302.352	583.12126
302.682	570.38093
303.012	573.56701
303.342	601.15215
303.672	588.42663
304.002	564.00676
304.332	573.56701
304.662	579.93717
304.992	555.50366
305.321	576.75242
305.651	610.68958
305.98	570.38093
306.31	555.50366
306.639	557.62989
306.969	554.44043
307.298	564.00676
307.628	587.3657
307.957	578.87566
308.286	555.50366
308.615	567.19418
308.944	572.50506
309.273	575.69069
309.602	599.03194
309.931	577.81408
310.26	553.37712
310.589	561.88144
310.918	542.73986
311.247	565.06931
311.575	594.79068
311.904	588.42663
312.233	588.42663
312.561	587.3657
312.89	566.13178
313.218	577.81408
313.546	617.04472
313.875	591.60898
314.203	566.13178
314.531	559.75581
314.859	539.54717
315.188	562.94414
315.516	579.93717
315.844	565.06931
316.172	572.50506
316.5	604.33193
316.827	584.18248
317.155	568.25651
317.483	588.42663
317.811	567.19418
318.138	553.37712
318.466	567.19418
318.794	555.50366
319.121	545.93185
319.449	588.42663
319.776	582.05997
320.103	574.62889
320.431	599.03194
320.758	587.3657
321.085	560.81866
321.412	553.37712
321.739	560.81866
322.066	579.93717
322.393	590.54827
322.72	573.56701
323.047	566.13178
323.374	568.25651
323.701	573.56701
324.028	560.81866
324.354	556.56681
324.681	559.75581
325.008	568.25651
325.334	573.56701
325.661	567.19418
325.987	590.54827
326.314	597.97173
326.64	571.44303
326.966	540.61148
327.293	543.80393
327.619	586.3047
327.945	566.13178
328.271	570.38093
328.597	589.48748
328.923	576.75242
329.249	592.66961
329.575	610.68958
329.901	596.91145
330.227	582.05997
330.552	577.81408
330.878	577.81408
331.204	579.93717
331.529	556.56681
331.855	583.12126
332.18	609.63015
332.506	587.3657
332.831	587.3657
333.156	580.99861
333.482	556.56681
333.807	561.88144
334.132	588.42663
334.457	612.80824
334.782	609.63015
335.107	601.15215
335.432	570.38093
335.757	569.31875
336.082	561.88144
336.407	544.86793
336.732	570.38093
337.057	562.94414
337.381	575.69069
337.706	577.81408
338.031	586.3047
338.355	568.25651
338.68	546.99569
339.004	571.44303
339.329	558.69289
339.653	555.50366
339.977	564.00676
340.301	580.99861
340.626	589.48748
340.95	567.19418
341.274	544.86793
341.598	532.09483
341.922	531.0299
342.246	528.89979
342.57	528.89979
342.894	571.44303
343.218	591.60898
343.541	569.31875
343.865	567.19418
344.189	605.39171
344.512	607.51107
344.836	556.56681
345.159	512.91382
345.483	557.62989
345.806	562.94414
346.13	529.96488
346.453	549.12314
346.776	548.05945
347.099	564.00676
347.423	578.87566
347.746	579.93717
348.069	577.81408
348.392	533.15969
348.715	517.17852
349.038	550.18675
349.361	569.31875
349.683	565.06931
350.006	548.05945
350.329	544.86793
350.652	535.28916
350.974	548.05945
351.297	571.44303
351.619	571.44303
351.942	579.93717
352.264	550.18675
352.587	540.61148
352.909	560.81866
353.231	551.25029
353.554	556.56681
353.876	553.37712
354.198	549.12314
354.52	559.75581
354.842	585.24363
355.164	597.97173
355.486	592.66961
355.808	562.94414
356.13	531.0299
356.452	569.31875
356.773	601.15215
357.095	555.50366
357.417	544.86793
357.738	568.25651
358.06	555.50366
358.381	552.31374
358.703	571.44303
359.024	573.56701
359.346	546.99569
359.667	553.37712
359.988	577.81408
360.309	570.38093
360.631	537.41832
360.952	534.22446
361.273	550.18675
361.594	571.44303
361.915	570.38093
362.236	546.99569
362.557	540.61148
362.878	538.48278
363.198	549.12314
363.519	549.12314
363.84	559.75581
364.16	567.19418
364.481	573.56701
364.802	587.3657
365.122	574.62889
365.443	595.8511
365.763	599.03194
366.083	558.69289
366.404	558.69289
366.724	578.87566
367.044	558.69289
367.364	567.19418
367.685	565.06931
368.005	535.28916
368.325	536.35378
368.645	550.18675
368.965	555.50366
369.284	555.50366
369.604	573.56701
369.924	583.12126
370.244	608.57064
370.564	566.13178
370.883	531.0299
371.203	582.05997
371.522	578.87566
371.842	562.94414
372.161	564.00676
372.481	549.12314
372.8	544.86793
373.119	573.56701
373.439	580.99861
373.758	582.05997
374.077	558.69289
374.396	539.54717
374.715	565.06931
375.034	576.75242
375.353	560.81866
375.672	544.86793
375.991	562.94414
376.31	559.75581
376.629	554.44043
376.948	552.31374
377.266	528.89979
377.585	569.31875
377.904	609.63015
378.222	553.37712
378.541	554.44043
378.859	584.18248
379.178	575.69069
379.496	558.69289
379.814	546.99569
380.133	549.12314
380.451	538.48278
380.769	556.56681
381.087	566.13178
381.405	540.61148
381.723	546.99569
382.041	576.75242
382.359	570.38093
382.677	560.81866
382.995	579.93717
383.313	567.19418
383.631	550.18675
383.949	550.18675
384.266	559.75581
384.584	594.79068
384.901	569.31875
385.219	565.06931
385.537	594.79068
385.854	564.00676
386.171	562.94414
386.489	575.69069
386.806	568.25651
387.123	571.44303
387.441	574.62889
387.758	585.24363
388.075	588.42663
388.392	565.06931
388.709	560.81866
389.026	585.24363
389.343	580.99861
389.66	569.31875
389.977	545.93185
390.294	546.99569
390.61	597.97173
390.927	610.68958
391.244	584.18248
391.56	568.25651
391.877	554.44043
392.193	552.31374
392.51	590.54827
392.826	608.57064
393.143	594.79068
393.459	596.91145
393.775	575.69069
394.092	558.69289
394.408	569.31875
394.724	564.00676
395.04	566.13178
395.356	580.99861
395.672	570.38093
395.988	546.99569
396.304	558.69289
396.62	557.62989
396.936	572.50506
397.252	564.00676
397.567	540.61148
397.883	540.61148
398.199	551.25029
398.514	567.19418
398.83	578.87566
399.146	590.54827
399.461	580.99861
399.777	562.94414
400.092	566.13178
400.407	575.69069
400.723	569.31875
401.038	556.56681
401.353	535.28916
401.668	543.80393
401.983	570.38093
402.298	572.50506
402.613	578.87566
402.928	576.75242
403.243	546.99569
403.558	557.62989
403.873	560.81866
404.188	561.88144
404.503	562.94414
404.817	549.12314
405.132	556.56681
405.447	562.94414
405.761	567.19418
406.076	584.18248
406.39	578.87566
406.705	566.13178
407.019	567.19418
407.334	575.69069
407.648	568.25651
407.962	559.75581
408.276	561.88144
408.591	548.05945
408.905	559.75581
409.219	577.81408
409.533	588.42663
409.847	573.56701
410.161	561.88144
410.475	583.12126
410.789	588.42663
411.102	574.62889
411.416	610.68958
411.73	602.21215
412.044	555.50366
412.357	568.25651
412.671	585.24363
412.984	568.25651
413.298	574.62889
413.611	617.04472
413.925	603.27207
414.238	571.44303
414.552	570.38093
414.865	570.38093
415.178	578.87566
415.491	564.00676
415.804	559.75581
416.118	582.05997
416.431	579.93717
416.744	572.50506
417.057	573.56701
417.37	582.05997
417.683	575.69069
417.995	587.3657
418.308	578.87566
418.621	553.37712
418.934	544.86793
419.246	564.00676
419.559	595.8511
419.872	603.27207
420.184	597.97173
420.497	564.00676
420.809	558.69289
421.121	564.00676
421.434	552.31374
421.746	541.6757
422.058	548.05945
422.371	555.50366
422.683	557.62989
422.995	552.31374
423.307	550.18675
423.619	566.13178
423.931	570.38093
424.243	560.81866
424.555	571.44303
424.867	597.97173
425.179	612.80824
425.491	597.97173
425.802	560.81866
426.114	565.06931
426.426	587.3657
426.737	570.38093
427.049	544.86793
427.361	555.50366
427.672	548.05945
427.984	535.28916
428.295	560.81866
428.606	574.62889
428.918	590.54827
429.229	628.68935
429.54	593.73018
429.851	537.41832
430.163	551.25029
430.474	577.81408
430.785	593.73018
431.096	592.66961
431.407	579.93717
431.718	585.24363
432.029	600.09208
432.339	558.69289
432.65	544.86793
432.961	599.03194
433.272	585.24363
433.582	575.69069
433.893	589.48748
434.204	561.88144
434.514	569.31875
434.825	569.31875
435.135	562.94414
435.446	586.3047
435.756	595.8511
436.066	595.8511
436.377	600.09208
436.687	584.18248
436.997	584.18248
437.307	576.75242
437.617	596.91145
437.927	595.8511
438.237	566.13178
438.547	584.18248
438.857	566.13178
439.167	556.56681
439.477	548.05945
439.787	552.31374
440.097	558.69289
440.407	559.75581
440.716	580.99861
441.026	559.75581
441.336	556.56681
441.645	574.62889
441.955	564.00676
442.264	561.88144
442.574	582.05997
442.883	572.50506
443.192	562.94414
443.502	600.09208
443.811	604.33193
444.12	561.88144
444.429	546.99569
444.739	567.19418
445.048	601.15215
445.357	594.79068
445.666	570.38093
445.975	587.3657
446.284	572.50506
446.593	559.75581
446.901	561.88144
447.21	576.75242
447.519	579.93717
447.828	544.86793
448.136	550.18675
448.445	570.38093
448.754	546.99569
449.062	553.37712
449.371	572.50506
449.679	584.18248
449.988	568.25651
450.296	560.81866
450.605	576.75242
450.913	553.37712
451.221	637.15301
451.529	631.86373
451.838	568.25651
452.146	571.44303
452.454	571.44303
452.762	621.28009
453.07	597.97173
453.378	565.06931
453.686	588.42663
453.994	585.24363
454.302	555.50366
454.609	541.6757
454.917	538.48278
455.225	548.05945
455.533	566.13178
455.84	571.44303
456.148	544.86793
456.455	536.35378
456.763	571.44303
457.07	582.05997
457.378	596.91145
457.685	589.48748
457.993	555.50366
458.3	560.81866
458.607	565.06931
458.915	565.06931
459.222	591.60898
459.529	606.45143
459.836	589.48748
460.143	559.75581
460.45	539.54717
460.757	545.93185
461.064	549.12314
461.371	572.50506
461.678	568.25651
461.985	558.69289
462.292	587.3657
462.598	578.87566
462.905	577.81408
463.212	576.75242
463.518	576.75242
463.825	574.62889
464.131	595.8511
464.438	589.48748
464.744	550.18675
465.051	543.80393
465.357	561.88144
465.664	541.6757
465.97	527.83462
466.276	562.94414
466.582	579.93717
466.889	589.48748
467.195	577.81408
467.501	564.00676
467.807	554.44043
468.113	554.44043
468.419	564.00676
468.725	562.94414
469.031	552.31374
469.337	591.60898
469.642	603.27207
469.948	566.13178
470.254	585.24363
470.56	605.39171
470.865	594.79068
471.171	565.06931
471.477	564.00676
471.782	585.24363
472.088	602.21215
472.393	643.49793
472.698	623.39736
473.004	572.50506
473.309	584.18248
473.614	610.68958
473.92	589.48748
474.225	570.38093
474.53	579.93717
474.835	557.62989
475.14	546.99569
475.445	567.19418
475.75	562.94414
476.055	580.99861
476.36	590.54827
476.665	562.94414
476.97	544.86793
477.275	557.62989
477.58	595.8511
477.885	613.86746
478.189	592.66961
478.494	554.44043
478.799	545.93185
479.103	527.83462
479.408	539.54717
479.712	555.50366
480.017	544.86793
480.321	565.06931
480.625	569.31875
480.93	573.56701
481.234	546.99569
481.538	524.63863
481.843	548.05945
482.147	561.88144
482.451	574.62889
482.755	587.3657
483.059	573.56701
483.363	567.19418
483.667	577.81408
483.971	557.62989
484.275	554.44043
484.579	576.75242
484.883	584.18248
485.187	589.48748
485.49	593.73018
485.794	570.38093
486.098	551.25029
486.401	550.18675
486.705	551.25029
487.009	564.00676
487.312	573.56701
487.616	593.73018
487.919	609.63015
488.222	578.87566
488.526	559.75581
488.829	565.06931
489.132	562.94414
489.436	548.05945
489.739	528.89979
490.042	556.56681
490.345	599.03194
490.648	602.21215
490.951	571.44303
491.254	548.05945
491.557	565.06931
491.86	574.62889
492.163	577.81408
492.466	574.62889
492.769	570.38093
493.072	589.48748
493.375	590.54827
493.677	583.12126
493.98	570.38093
494.283	570.38093
494.585	575.69069
494.888	567.19418
495.19	586.3047
495.493	594.79068
495.795	599.03194
496.098	607.51107
496.4	609.63015
496.702	597.97173
497.005	585.24363
497.307	614.92662
497.609	591.60898
497.911	528.89979
498.213	529.96488
498.515	553.37712
498.818	574.62889
499.12	580.99861
499.422	574.62889
499.723	577.81408
500.025	600.09208
500.327	586.3047
500.629	573.56701
500.931	588.42663
501.233	580.99861
501.534	574.62889
501.836	577.81408
502.138	591.60898
502.439	594.79068
502.741	565.06931
503.042	561.88144
503.344	568.25651
503.645	601.15215
503.947	611.74894
504.248	570.38093
504.55	560.81866
504.851	582.05997
505.152	570.38093
505.453	536.35378
505.755	566.13178
506.056	561.88144
506.357	531.0299
506.658	580.99861
506.959	601.15215
507.26	575.69069
507.561	576.75242
507.862	593.73018
508.163	583.12126
508.464	557.62989
508.764	553.37712
509.065	546.99569
509.366	573.56701
509.667	580.99861
509.967	556.56681
510.268	551.25029
510.569	573.56701
510.869	582.05997
511.17	585.24363
511.47	583.12126
511.771	554.44043
512.071	555.50366
512.371	569.31875
512.672	553.37712
512.972	560.81866
513.272	591.60898
513.573	561.88144
513.873	527.83462
514.173	561.88144
514.473	572.50506
514.773	549.12314
515.073	526.76937
515.373	528.89979
515.673	556.56681
515.973	561.88144
516.273	562.94414
516.573	542.73986
516.873	538.48278
517.172	564.00676
517.472	568.25651
517.772	576.75242
518.072	576.75242
518.371	591.60898
518.671	573.56701
518.97	540.61148
519.27	572.50506
519.569	580.99861
519.869	567.19418
520.168	602.21215
520.468	595.8511
520.767	550.18675
521.066	549.12314
521.366	561.88144
521.665	552.31374
521.964	546.99569
522.263	543.80393
522.562	564.00676
522.861	591.60898
523.161	571.44303
523.46	559.75581
523.759	567.19418
524.057	575.69069
524.356	579.93717
524.655	557.62989
524.954	544.86793
525.253	552.31374
525.552	576.75242
525.85	589.48748
526.149	578.87566
526.448	542.73986
526.746	515.04633
527.045	566.13178
527.344	619.16254
527.642	618.10366
527.941	589.48748
528.239	571.44303
528.537	575.69069
528.836	590.54827
529.134	592.66961
529.432	561.88144
529.731	532.09483
530.029	550.18675
530.327	589.48748
530.625	570.38093
530.923	564.00676
531.221	596.91145
531.52	594.79068
531.818	567.19418
532.116	561.88144
532.413	579.93717
532.711	570.38093
533.009	553.37712
533.307	549.12314
533.605	549.12314
533.903	551.25029
534.2	548.05945
534.498	562.94414
534.796	571.44303
535.093	557.62989
535.391	568.25651
535.689	572.50506
535.986	574.62889
536.284	561.88144
536.581	555.50366
536.878	583.12126
537.176	584.18248
537.473	579.93717
537.77	591.60898
538.068	577.81408
538.365	588.42663
538.662	611.74894
538.959	595.8511
539.256	545.93185
