Data from dark_beginning_ST026791__158__1256.txt Node

Date: Mon Aug 18 22:11:06 AEST 2025
User: mathewyoussef
Spectrometer: ST02679
Trigger mode: 0
Integration Time (sec): 6.653700E-1
Scans to average: 1
Nonlinearity correction enabled: true
Boxcar width: 0
Storing dark spectrum: false
XAxis mode: Wavelengths
Number of Pixels in Spectrum: 1516
>>>>>Begin Spectral Data<<<<<
187.304	584.18248
187.653	564.00676
188.002	569.31875
188.351	591.60898
188.7	582.05997
189.048	561.88144
189.397	601.15215
189.746	604.33193
190.094	546.99569
190.443	545.93185
190.791	589.48748
191.14	597.97173
191.488	582.05997
191.837	600.09208
192.185	580.99861
192.533	569.31875
192.881	586.3047
193.229	585.24363
193.577	570.38093
193.925	559.75581
194.273	588.42663
194.621	618.10366
194.969	596.91145
195.317	568.25651
195.664	568.25651
196.012	559.75581
196.359	571.44303
196.707	584.18248
197.054	590.54827
197.402	583.12126
197.749	542.73986
198.096	538.48278
198.443	557.62989
198.791	557.62989
199.138	572.50506
199.485	577.81408
199.832	589.48748
200.179	592.66961
200.525	572.50506
200.872	554.44043
201.219	553.37712
201.566	590.54827
201.912	574.62889
202.259	565.06931
202.605	551.25029
202.952	555.50366
203.298	576.75242
203.644	555.50366
203.991	570.38093
204.337	566.13178
204.683	543.80393
205.029	554.44043
205.375	559.75581
205.721	549.12314
206.067	560.81866
206.413	577.81408
206.759	585.24363
207.104	566.13178
207.45	556.56681
207.796	575.69069
208.141	569.31875
208.487	592.66961
208.832	619.16254
209.177	595.8511
209.523	576.75242
209.868	575.69069
210.213	569.31875
210.558	575.69069
210.903	569.31875
211.248	572.50506
211.593	601.15215
211.938	590.54827
212.283	586.3047
212.628	575.69069
212.973	570.38093
213.317	569.31875
213.662	564.00676
214.007	585.24363
214.351	589.48748
214.696	584.18248
215.04	594.79068
215.384	591.60898
215.729	570.38093
216.073	573.56701
216.417	595.8511
216.761	575.69069
217.105	585.24363
217.449	590.54827
217.793	568.25651
218.137	573.56701
218.481	572.50506
218.824	599.03194
219.168	588.42663
219.512	572.50506
219.855	584.18248
220.199	564.00676
220.542	560.81866
220.886	579.93717
221.229	570.38093
221.572	553.37712
221.916	551.25029
222.259	551.25029
222.602	567.19418
222.945	571.44303
223.288	556.56681
223.631	555.50366
223.974	566.13178
224.317	579.93717
224.659	579.93717
225.002	572.50506
225.345	569.31875
225.687	582.05997
226.03	600.09208
226.372	582.05997
226.715	564.00676
227.057	572.50506
227.4	575.69069
227.742	567.19418
228.084	544.86793
228.426	532.09483
228.768	560.81866
229.11	591.60898
229.452	608.57064
229.794	620.22135
230.136	587.3657
230.478	584.18248
230.82	604.33193
231.161	591.60898
231.503	585.24363
231.845	593.73018
232.186	595.8511
232.528	573.56701
232.869	568.25651
233.21	592.66961
233.552	582.05997
233.893	556.56681
234.234	550.18675
234.575	562.94414
234.916	587.3657
235.257	602.21215
235.598	614.92662
235.939	602.21215
236.28	566.13178
236.621	569.31875
236.961	600.09208
237.302	609.63015
237.643	572.50506
237.983	560.81866
238.324	569.31875
238.664	584.18248
239.005	596.91145
239.345	576.75242
239.685	582.05997
240.025	570.38093
240.366	567.19418
240.706	601.15215
241.046	583.12126
241.386	580.99861
241.726	585.24363
242.066	584.18248
242.405	566.13178
242.745	578.87566
243.085	602.21215
243.425	578.87566
243.764	594.79068
244.104	636.09528
244.443	644.55518
244.783	607.51107
245.122	588.42663
245.461	597.97173
245.801	600.09208
246.14	587.3657
246.479	556.56681
246.818	558.69289
247.157	588.42663
247.496	600.09208
247.835	588.42663
248.174	558.69289
248.513	552.31374
248.852	606.45143
249.19	625.51436
249.529	586.3047
249.868	574.62889
250.206	583.12126
250.545	593.73018
250.883	597.97173
251.221	572.50506
251.56	546.99569
251.898	564.00676
252.236	558.69289
252.574	545.93185
252.912	539.54717
253.25	533.15969
253.588	546.99569
253.926	611.74894
254.264	607.51107
254.602	574.62889
254.94	583.12126
255.278	552.31374
255.615	550.18675
255.953	587.3657
256.29	596.91145
256.628	577.81408
256.965	567.19418
257.303	568.25651
257.64	601.15215
257.977	607.51107
258.314	582.05997
258.652	576.75242
258.989	579.93717
259.326	592.66961
259.663	594.79068
260	583.12126
260.337	560.81866
260.673	567.19418
261.01	586.3047
261.347	588.42663
261.684	568.25651
262.02	573.56701
262.357	602.21215
262.693	600.09208
263.03	600.09208
263.366	597.97173
263.702	583.12126
264.039	588.42663
264.375	572.50506
264.711	558.69289
265.047	566.13178
265.383	576.75242
265.719	583.12126
266.055	577.81408
266.391	607.51107
266.727	600.09208
267.063	553.37712
267.399	548.05945
267.734	579.93717
268.07	592.66961
268.405	585.24363
268.741	588.42663
269.076	574.62889
269.412	592.66961
269.747	614.92662
270.082	591.60898
270.418	572.50506
270.753	577.81408
271.088	594.79068
271.423	595.8511
271.758	577.81408
272.093	585.24363
272.428	595.8511
272.763	577.81408
273.098	586.3047
273.433	588.42663
273.767	586.3047
274.102	572.50506
274.436	555.50366
274.771	559.75581
275.106	579.93717
275.44	601.15215
275.774	584.18248
276.109	568.25651
276.443	572.50506
276.777	559.75581
277.111	558.69289
277.445	573.56701
277.78	589.48748
278.114	590.54827
278.447	570.38093
278.781	543.80393
279.115	551.25029
279.449	573.56701
279.783	589.48748
280.116	588.42663
280.45	566.13178
280.784	603.27207
281.117	618.10366
281.451	592.66961
281.784	608.57064
282.117	582.05997
282.451	551.25029
282.784	564.00676
283.117	574.62889
283.45	590.54827
283.783	575.69069
284.116	576.75242
284.449	591.60898
284.782	627.63109
285.115	622.33876
285.448	580.99861
285.781	565.06931
286.114	566.13178
286.446	600.09208
286.779	633.97964
287.111	625.51436
287.444	587.3657
287.776	577.81408
288.109	571.44303
288.441	560.81866
288.773	558.69289
289.106	583.12126
289.438	599.03194
289.77	594.79068
290.102	597.97173
290.434	579.93717
290.766	591.60898
291.098	589.48748
291.43	569.31875
291.762	566.13178
292.094	583.12126
292.425	593.73018
292.757	572.50506
293.089	590.54827
293.42	585.24363
293.752	583.12126
294.083	593.73018
294.414	564.00676
294.746	552.31374
295.077	574.62889
295.408	579.93717
295.74	600.09208
296.071	601.15215
296.402	565.06931
296.733	548.05945
297.064	561.88144
297.395	565.06931
297.726	573.56701
298.056	611.74894
298.387	600.09208
298.718	610.68958
299.049	653.01083
299.379	619.16254
299.71	573.56701
300.04	589.48748
300.371	601.15215
300.701	599.03194
301.031	611.74894
301.362	597.97173
301.692	565.06931
302.022	580.99861
302.352	601.15215
302.682	579.93717
303.012	578.87566
303.342	585.24363
303.672	588.42663
304.002	556.56681
304.332	560.81866
304.662	608.57064
304.992	583.12126
305.321	556.56681
305.651	573.56701
305.98	567.19418
306.31	552.31374
306.639	553.37712
306.969	559.75581
307.298	582.05997
307.628	580.99861
307.957	568.25651
308.286	558.69289
308.615	557.62989
308.944	561.88144
309.273	559.75581
309.602	573.56701
309.931	579.93717
310.26	565.06931
310.589	578.87566
310.918	608.57064
311.247	580.99861
311.575	540.61148
311.904	576.75242
312.233	597.97173
312.561	564.00676
312.89	551.25029
313.218	590.54827
313.546	606.45143
313.875	571.44303
314.203	556.56681
314.531	557.62989
314.859	577.81408
315.188	577.81408
315.516	590.54827
315.844	595.8511
316.172	588.42663
316.5	597.97173
316.827	594.79068
317.155	605.39171
317.483	622.33876
317.811	603.27207
318.138	553.37712
318.466	564.00676
318.794	568.25651
319.121	583.12126
319.449	600.09208
319.776	572.50506
320.103	585.24363
320.431	592.66961
320.758	556.56681
321.085	526.76937
321.412	557.62989
321.739	578.87566
322.066	569.31875
322.393	574.62889
322.72	553.37712
323.047	549.12314
323.374	578.87566
323.701	596.91145
324.028	594.79068
324.354	554.44043
324.681	559.75581
325.008	601.15215
325.334	592.66961
325.661	560.81866
325.987	559.75581
326.314	576.75242
326.64	576.75242
326.966	570.38093
327.293	576.75242
327.619	575.69069
327.945	573.56701
328.271	592.66961
328.597	565.06931
328.923	551.25029
329.249	546.99569
329.575	537.41832
329.901	551.25029
330.227	574.62889
330.552	623.39736
330.878	620.22135
331.204	595.8511
331.529	575.69069
331.855	575.69069
332.18	573.56701
332.506	565.06931
332.831	570.38093
333.156	591.60898
333.482	585.24363
333.807	550.18675
334.132	564.00676
334.457	591.60898
334.782	606.45143
335.107	573.56701
335.432	546.99569
335.757	560.81866
336.082	561.88144
336.407	574.62889
336.732	571.44303
337.057	564.00676
337.381	569.31875
337.706	555.50366
338.031	542.73986
338.355	551.25029
338.68	554.44043
339.004	574.62889
339.329	618.10366
339.653	596.91145
339.977	586.3047
340.301	595.8511
340.626	577.81408
340.95	580.99861
341.274	576.75242
341.598	539.54717
341.922	544.86793
342.246	585.24363
342.57	590.54827
342.894	579.93717
343.218	571.44303
343.541	559.75581
343.865	585.24363
344.189	579.93717
344.512	559.75581
344.836	603.27207
345.159	604.33193
345.483	582.05997
345.806	570.38093
346.13	562.94414
346.453	582.05997
346.776	574.62889
347.099	596.91145
347.423	614.92662
347.746	587.3657
348.069	573.56701
348.392	575.69069
348.715	564.00676
349.038	562.94414
349.361	592.66961
349.683	584.18248
350.006	567.19418
350.329	564.00676
350.652	605.39171
350.974	609.63015
351.297	566.13178
351.619	571.44303
351.942	587.3657
352.264	595.8511
352.587	571.44303
352.909	584.18248
353.231	584.18248
353.554	582.05997
353.876	601.15215
354.198	592.66961
354.52	588.42663
354.842	587.3657
355.164	587.3657
355.486	588.42663
355.808	600.09208
356.13	579.93717
356.452	592.66961
356.773	604.33193
357.095	597.97173
357.417	591.60898
357.738	577.81408
358.06	594.79068
358.381	571.44303
358.703	565.06931
359.024	584.18248
359.346	584.18248
359.667	551.25029
359.988	534.22446
360.309	556.56681
360.631	565.06931
360.952	574.62889
361.273	580.99861
361.594	548.05945
361.915	553.37712
362.236	577.81408
362.557	587.3657
362.878	600.09208
363.198	582.05997
363.519	579.93717
363.84	562.94414
364.16	569.31875
364.481	584.18248
364.802	562.94414
365.122	577.81408
365.443	595.8511
365.763	583.12126
366.083	571.44303
366.404	551.25029
366.724	549.12314
367.044	592.66961
367.364	591.60898
367.685	560.81866
368.005	584.18248
368.325	606.45143
368.645	593.73018
368.965	584.18248
369.284	585.24363
369.604	555.50366
369.924	566.13178
370.244	582.05997
370.564	580.99861
370.883	568.25651
371.203	580.99861
371.522	604.33193
371.842	594.79068
372.161	618.10366
372.481	622.33876
372.8	596.91145
373.119	596.91145
373.439	596.91145
373.758	571.44303
374.077	553.37712
374.396	571.44303
374.715	570.38093
375.034	564.00676
375.353	592.66961
375.672	592.66961
375.991	580.99861
376.31	573.56701
376.629	573.56701
376.948	585.24363
377.266	572.50506
377.585	597.97173
377.904	600.09208
378.222	570.38093
378.541	557.62989
378.859	553.37712
379.178	552.31374
379.496	569.31875
379.814	590.54827
380.133	575.69069
380.451	583.12126
380.769	555.50366
381.087	548.05945
381.405	571.44303
381.723	608.57064
382.041	593.73018
382.359	558.69289
382.677	582.05997
382.995	571.44303
383.313	576.75242
383.631	575.69069
383.949	551.25029
384.266	564.00676
384.584	572.50506
384.901	566.13178
385.219	566.13178
385.537	551.25029
385.854	575.69069
386.171	578.87566
386.489	546.99569
386.806	587.3657
387.123	610.68958
387.441	587.3657
387.758	601.15215
388.075	613.86746
388.392	594.79068
388.709	578.87566
389.026	588.42663
389.343	610.68958
389.66	621.28009
389.977	604.33193
390.294	577.81408
390.61	592.66961
390.927	610.68958
391.244	628.68935
391.56	611.74894
391.877	582.05997
392.193	569.31875
392.51	565.06931
392.826	569.31875
393.143	544.86793
393.459	546.99569
393.775	559.75581
394.092	556.56681
394.408	552.31374
394.724	553.37712
395.04	571.44303
395.356	593.73018
395.672	604.33193
395.988	600.09208
396.304	590.54827
396.62	576.75242
396.936	584.18248
397.252	590.54827
397.567	567.19418
397.883	562.94414
398.199	577.81408
398.514	566.13178
398.83	574.62889
399.146	591.60898
399.461	586.3047
399.777	605.39171
400.092	588.42663
400.407	538.48278
400.723	537.41832
401.038	572.50506
401.353	565.06931
401.668	536.35378
401.983	544.86793
402.298	578.87566
402.613	596.91145
402.928	567.19418
403.243	550.18675
403.558	568.25651
403.873	592.66961
404.188	580.99861
404.503	559.75581
404.817	578.87566
405.132	576.75242
405.447	536.35378
405.761	549.12314
406.076	589.48748
406.39	568.25651
406.705	553.37712
407.019	595.8511
407.334	594.79068
407.648	576.75242
407.962	574.62889
408.276	565.06931
408.591	561.88144
408.905	572.50506
409.219	599.03194
409.533	607.51107
409.847	589.48748
410.161	569.31875
410.475	586.3047
410.789	576.75242
411.102	567.19418
411.416	606.45143
411.73	599.03194
412.044	572.50506
412.357	578.87566
412.671	567.19418
412.984	562.94414
413.298	571.44303
413.611	601.15215
413.925	612.80824
414.238	597.97173
414.552	605.39171
414.865	582.05997
415.178	578.87566
415.491	597.97173
415.804	610.68958
416.118	588.42663
416.431	573.56701
416.744	571.44303
417.057	549.12314
417.37	561.88144
417.683	583.12126
417.995	590.54827
418.308	567.19418
418.621	551.25029
418.934	565.06931
419.246	566.13178
419.559	596.91145
419.872	603.27207
420.184	591.60898
420.497	579.93717
420.809	559.75581
421.121	560.81866
421.434	558.69289
421.746	561.88144
422.058	557.62989
422.371	564.00676
422.683	556.56681
422.995	553.37712
423.307	564.00676
423.619	585.24363
423.931	572.50506
424.243	543.80393
424.555	544.86793
424.867	571.44303
425.179	621.28009
425.491	618.10366
425.802	577.81408
426.114	568.25651
426.426	562.94414
426.737	559.75581
427.049	583.12126
427.361	597.97173
427.672	580.99861
427.984	572.50506
428.295	590.54827
428.606	584.18248
428.918	606.45143
429.229	664.63053
429.54	640.32577
429.851	604.33193
430.163	570.38093
430.474	571.44303
430.785	584.18248
431.096	584.18248
431.407	615.9857
431.718	578.87566
432.029	573.56701
432.339	608.57064
432.65	609.63015
432.961	589.48748
433.272	583.12126
433.582	585.24363
433.893	573.56701
434.204	572.50506
434.514	568.25651
434.825	575.69069
435.135	597.97173
435.446	603.27207
435.756	614.92662
436.066	607.51107
436.377	601.15215
436.687	587.3657
436.997	562.94414
437.307	583.12126
437.617	571.44303
437.927	572.50506
438.237	583.12126
438.547	588.42663
438.857	607.51107
439.167	584.18248
439.477	558.69289
439.787	570.38093
440.097	592.66961
440.407	585.24363
440.716	571.44303
441.026	583.12126
441.336	600.09208
441.645	576.75242
441.955	566.13178
442.264	574.62889
442.574	588.42663
442.883	597.97173
443.192	579.93717
443.502	601.15215
443.811	626.57276
444.12	604.33193
444.429	566.13178
444.739	560.81866
445.048	580.99861
445.357	596.91145
445.666	585.24363
445.975	583.12126
446.284	596.91145
446.593	577.81408
446.901	582.05997
447.21	607.51107
447.519	607.51107
447.828	597.97173
448.136	594.79068
448.445	568.25651
448.754	555.50366
449.062	568.25651
449.371	565.06931
449.679	561.88144
449.988	556.56681
450.296	567.19418
450.605	574.62889
450.913	604.33193
451.221	631.86373
451.529	617.04472
451.838	605.39171
452.146	590.54827
452.454	576.75242
452.762	594.79068
453.07	609.63015
453.378	607.51107
453.686	591.60898
453.994	597.97173
454.302	577.81408
454.609	551.25029
454.917	557.62989
455.225	553.37712
455.533	579.93717
455.84	589.48748
456.148	570.38093
456.455	584.18248
456.763	585.24363
457.07	577.81408
457.378	589.48748
457.685	566.13178
457.993	550.18675
458.3	579.93717
458.607	582.05997
458.915	565.06931
459.222	578.87566
459.529	558.69289
459.836	545.93185
460.143	558.69289
460.45	561.88144
460.757	578.87566
461.064	548.05945
461.371	554.44043
461.678	575.69069
461.985	567.19418
462.292	564.00676
462.598	555.50366
462.905	555.50366
463.212	577.81408
463.518	586.3047
463.825	557.62989
464.131	577.81408
464.438	602.21215
464.744	614.92662
465.051	596.91145
465.357	580.99861
465.664	578.87566
465.97	562.94414
466.276	580.99861
466.582	615.9857
466.889	578.87566
467.195	539.54717
467.501	545.93185
467.807	569.31875
468.113	569.31875
468.419	550.18675
468.725	583.12126
469.031	590.54827
469.337	578.87566
469.642	577.81408
469.948	592.66961
470.254	585.24363
470.56	567.19418
470.865	562.94414
471.171	569.31875
471.477	574.62889
471.782	575.69069
472.088	596.91145
472.393	629.74755
472.698	640.32577
473.004	613.86746
473.309	568.25651
473.614	534.22446
473.92	541.6757
474.225	557.62989
474.53	553.37712
474.835	562.94414
475.14	568.25651
475.445	567.19418
475.75	588.42663
476.055	595.8511
476.36	605.39171
476.665	612.80824
476.97	610.68958
477.275	608.57064
477.58	574.62889
477.885	553.37712
478.189	551.25029
478.494	562.94414
478.799	593.73018
479.103	608.57064
479.408	597.97173
479.712	591.60898
480.017	609.63015
480.321	617.04472
480.625	604.33193
480.93	578.87566
481.234	545.93185
481.538	559.75581
481.843	586.3047
482.147	587.3657
482.451	589.48748
482.755	596.91145
483.059	605.39171
483.363	590.54827
483.667	571.44303
483.971	576.75242
484.275	572.50506
484.579	597.97173
484.883	603.27207
485.187	559.75581
485.49	560.81866
485.794	572.50506
486.098	566.13178
486.401	553.37712
486.705	566.13178
487.009	575.69069
487.312	579.93717
487.616	590.54827
487.919	589.48748
488.222	588.42663
488.526	582.05997
488.829	602.21215
489.132	605.39171
489.436	553.37712
489.739	554.44043
490.042	578.87566
490.345	577.81408
490.648	571.44303
490.951	579.93717
491.254	601.15215
491.557	596.91145
491.86	589.48748
492.163	573.56701
492.466	575.69069
492.769	577.81408
493.072	597.97173
493.375	595.8511
493.677	564.00676
493.98	570.38093
494.283	585.24363
494.585	575.69069
494.888	573.56701
495.19	601.15215
495.493	596.91145
495.795	566.13178
496.098	591.60898
496.4	609.63015
496.702	591.60898
497.005	600.09208
497.307	623.39736
497.609	608.57064
497.911	556.56681
498.213	588.42663
498.515	621.28009
498.818	578.87566
499.12	559.75581
499.422	586.3047
499.723	590.54827
500.025	599.03194
500.327	580.99861
500.629	549.12314
500.931	555.50366
501.233	565.06931
501.534	568.25651
501.836	552.31374
502.138	554.44043
502.439	575.69069
502.741	604.33193
503.042	607.51107
503.344	589.48748
503.645	589.48748
503.947	587.3657
504.248	572.50506
504.55	550.18675
504.851	550.18675
505.152	570.38093
505.453	588.42663
505.755	597.97173
506.056	595.8511
506.357	579.93717
506.658	606.45143
506.959	617.04472
507.26	601.15215
507.561	607.51107
507.862	587.3657
508.163	570.38093
508.464	569.31875
508.764	572.50506
509.065	569.31875
509.366	597.97173
509.667	614.92662
509.967	585.24363
510.268	571.44303
510.569	595.8511
510.869	609.63015
511.17	572.50506
511.47	583.12126
511.771	608.57064
512.071	609.63015
512.371	590.54827
512.672	574.62889
512.972	582.05997
513.272	585.24363
513.573	591.60898
513.873	568.25651
514.173	548.05945
514.473	538.48278
514.773	541.6757
515.073	577.81408
515.373	590.54827
515.673	577.81408
515.973	583.12126
516.273	609.63015
516.573	606.45143
516.873	570.38093
517.172	579.93717
517.472	576.75242
517.772	549.12314
518.072	548.05945
518.371	554.44043
518.671	587.3657
518.97	590.54827
519.27	584.18248
519.569	590.54827
519.869	582.05997
520.168	596.91145
520.468	597.97173
520.767	593.73018
521.066	585.24363
521.366	578.87566
521.665	595.8511
521.964	594.79068
522.263	580.99861
522.562	593.73018
522.861	605.39171
523.161	584.18248
523.46	564.00676
523.759	558.69289
524.057	585.24363
524.356	596.91145
524.655	561.88144
524.954	539.54717
525.253	599.03194
525.552	647.72654
525.85	626.57276
526.149	596.91145
526.448	568.25651
526.746	552.31374
527.045	561.88144
527.344	629.74755
527.642	651.95411
527.941	609.63015
528.239	592.66961
528.537	577.81408
528.836	572.50506
529.134	588.42663
529.432	610.68958
529.731	600.09208
530.029	571.44303
530.327	574.62889
530.625	576.75242
530.923	559.75581
531.221	553.37712
531.52	543.80393
531.818	539.54717
532.116	542.73986
532.413	561.88144
532.711	577.81408
533.009	593.73018
533.307	613.86746
533.605	577.81408
533.903	580.99861
534.2	591.60898
534.498	575.69069
534.796	577.81408
535.093	572.50506
535.391	578.87566
535.689	570.38093
535.986	591.60898
536.284	619.16254
536.581	573.56701
536.878	570.38093
537.176	559.75581
537.473	550.18675
537.77	584.18248
538.068	560.81866
538.365	577.81408
538.662	608.57064
538.959	596.91145
539.256	569.31875
