Data from dark_beginning_ST026791__135__1233.txt Node

Date: Mon Aug 18 22:10:35 AEST 2025
User: mathewyoussef
Spectrometer: ST02679
Trigger mode: 0
Integration Time (sec): 6.653700E-1
Scans to average: 1
Nonlinearity correction enabled: true
Boxcar width: 0
Storing dark spectrum: false
XAxis mode: Wavelengths
Number of Pixels in Spectrum: 1516
>>>>>Begin Spectral Data<<<<<
187.304	568.25651
187.653	580.99861
188.002	585.24363
188.351	541.6757
188.7	533.15969
189.048	562.94414
189.397	572.50506
189.746	577.81408
190.094	573.56701
190.443	572.50506
190.791	560.81866
191.14	564.00676
191.488	560.81866
191.837	567.19418
192.185	584.18248
192.533	587.3657
192.881	583.12126
193.229	569.31875
193.577	573.56701
193.925	562.94414
194.273	555.50366
194.621	572.50506
194.969	588.42663
195.317	567.19418
195.664	553.37712
196.012	569.31875
196.359	597.97173
196.707	604.33193
197.054	599.03194
197.402	609.63015
197.749	588.42663
198.096	586.3047
198.443	599.03194
198.791	582.05997
199.138	576.75242
199.485	586.3047
199.832	607.51107
200.179	603.27207
200.525	585.24363
200.872	586.3047
201.219	578.87566
201.566	577.81408
201.912	577.81408
202.259	590.54827
202.605	593.73018
202.952	571.44303
203.298	570.38093
203.644	577.81408
203.991	562.94414
204.337	557.62989
204.683	574.62889
205.029	588.42663
205.375	554.44043
205.721	578.87566
206.067	638.21066
206.413	591.60898
206.759	558.69289
207.104	569.31875
207.45	583.12126
207.796	576.75242
208.141	557.62989
208.487	552.31374
208.832	567.19418
209.177	560.81866
209.523	559.75581
209.868	566.13178
210.213	552.31374
210.558	571.44303
210.903	584.18248
211.248	578.87566
211.593	591.60898
211.938	607.51107
212.283	613.86746
212.628	572.50506
212.973	535.28916
213.317	550.18675
213.662	550.18675
214.007	558.69289
214.351	552.31374
214.696	561.88144
215.04	568.25651
215.384	566.13178
215.729	570.38093
216.073	550.18675
216.417	571.44303
216.761	575.69069
217.105	570.38093
217.449	609.63015
217.793	603.27207
218.137	551.25029
218.481	540.61148
218.824	564.00676
219.168	578.87566
219.512	567.19418
219.855	576.75242
220.199	573.56701
220.542	553.37712
220.886	593.73018
221.229	599.03194
221.572	567.19418
221.916	556.56681
222.259	554.44043
222.602	580.99861
222.945	560.81866
223.288	553.37712
223.631	587.3657
223.974	582.05997
224.317	576.75242
224.659	569.31875
225.002	556.56681
225.345	552.31374
225.687	571.44303
226.03	584.18248
226.372	582.05997
226.715	568.25651
227.057	570.38093
227.4	597.97173
227.742	606.45143
228.084	577.81408
228.426	566.13178
228.768	565.06931
229.11	576.75242
229.452	595.8511
229.794	574.62889
230.136	553.37712
230.478	551.25029
230.82	555.50366
231.161	580.99861
231.503	617.04472
231.845	606.45143
232.186	612.80824
232.528	609.63015
232.869	568.25651
233.21	587.3657
233.552	572.50506
233.893	535.28916
234.234	567.19418
234.575	595.8511
234.916	599.03194
235.257	593.73018
235.598	593.73018
235.939	578.87566
236.28	558.69289
236.621	569.31875
236.961	594.79068
237.302	569.31875
237.643	537.41832
237.983	534.22446
238.324	536.35378
238.664	580.99861
239.005	602.21215
239.345	573.56701
239.685	566.13178
240.025	580.99861
240.366	550.18675
240.706	538.48278
241.046	555.50366
241.386	557.62989
241.726	555.50366
242.066	571.44303
242.405	568.25651
242.745	541.6757
243.085	564.00676
243.425	595.8511
243.764	622.33876
244.104	623.39736
244.443	589.48748
244.783	582.05997
245.122	588.42663
245.461	567.19418
245.801	567.19418
246.14	567.19418
246.479	552.31374
246.818	562.94414
247.157	586.3047
247.496	586.3047
247.835	555.50366
248.174	557.62989
248.513	594.79068
248.852	626.57276
249.19	583.12126
249.529	567.19418
249.868	600.09208
250.206	603.27207
250.545	600.09208
250.883	569.31875
251.221	562.94414
251.56	579.93717
251.898	566.13178
252.236	579.93717
252.574	586.3047
252.912	539.54717
253.25	576.75242
253.588	597.97173
253.926	599.03194
254.264	604.33193
254.602	582.05997
254.94	569.31875
255.278	560.81866
255.615	568.25651
255.953	592.66961
256.29	585.24363
256.628	564.00676
256.965	555.50366
257.303	551.25029
257.64	583.12126
257.977	597.97173
258.314	580.99861
258.652	561.88144
258.989	583.12126
259.326	597.97173
259.663	603.27207
260	602.21215
260.337	590.54827
260.673	557.62989
261.01	550.18675
261.347	576.75242
261.684	569.31875
262.02	584.18248
262.357	594.79068
262.693	572.50506
263.03	557.62989
263.366	564.00676
263.702	580.99861
264.039	596.91145
264.375	582.05997
264.711	550.18675
265.047	565.06931
265.383	589.48748
265.719	577.81408
266.055	590.54827
266.391	596.91145
266.727	565.06931
267.063	554.44043
267.399	555.50366
267.734	553.37712
268.07	575.69069
268.405	609.63015
268.741	594.79068
269.076	567.19418
269.412	585.24363
269.747	604.33193
270.082	576.75242
270.418	573.56701
270.753	583.12126
271.088	558.69289
271.423	566.13178
271.758	559.75581
272.093	552.31374
272.428	565.06931
272.763	580.99861
273.098	579.93717
273.433	582.05997
273.767	579.93717
274.102	561.88144
274.436	562.94414
274.771	560.81866
275.106	569.31875
275.44	595.8511
275.774	582.05997
276.109	574.62889
276.443	591.60898
276.777	558.69289
277.111	574.62889
277.445	585.24363
277.78	582.05997
278.114	612.80824
278.447	615.9857
278.781	599.03194
279.115	597.97173
279.449	558.69289
279.783	552.31374
280.116	590.54827
280.45	571.44303
280.784	571.44303
281.117	594.79068
281.451	599.03194
281.784	630.80567
282.117	615.9857
282.451	538.48278
282.784	551.25029
283.117	603.27207
283.45	582.05997
283.783	559.75581
284.116	582.05997
284.449	566.13178
284.782	583.12126
285.115	595.8511
285.448	589.48748
285.781	602.21215
286.114	592.66961
286.446	604.33193
286.779	602.21215
287.111	580.99861
287.444	583.12126
287.776	578.87566
288.109	571.44303
288.441	577.81408
288.773	579.93717
289.106	576.75242
289.438	579.93717
289.77	575.69069
290.102	582.05997
290.434	585.24363
290.766	592.66961
291.098	579.93717
291.43	569.31875
291.762	583.12126
292.094	583.12126
292.425	569.31875
292.757	553.37712
293.089	575.69069
293.42	569.31875
293.752	540.61148
294.083	546.99569
294.414	562.94414
294.746	561.88144
295.077	577.81408
295.408	604.33193
295.74	612.80824
296.071	578.87566
296.402	544.86793
296.733	567.19418
297.064	580.99861
297.395	558.69289
297.726	571.44303
298.056	610.68958
298.387	580.99861
298.718	564.00676
299.049	580.99861
299.379	562.94414
299.71	560.81866
300.04	541.6757
300.371	534.22446
300.701	558.69289
301.031	588.42663
301.362	609.63015
301.692	613.86746
302.022	609.63015
302.352	588.42663
302.682	576.75242
303.012	562.94414
303.342	550.18675
303.672	566.13178
304.002	586.3047
304.332	587.3657
304.662	588.42663
304.992	575.69069
305.321	556.56681
305.651	562.94414
305.98	564.00676
306.31	550.18675
306.639	579.93717
306.969	602.21215
307.298	565.06931
307.628	543.80393
307.957	546.99569
308.286	566.13178
308.615	552.31374
308.944	545.93185
309.273	589.48748
309.602	587.3657
309.931	589.48748
310.26	588.42663
310.589	569.31875
310.918	572.50506
311.247	626.57276
311.575	609.63015
311.904	555.50366
312.233	586.3047
312.561	567.19418
312.89	535.28916
313.218	570.38093
313.546	587.3657
313.875	591.60898
314.203	595.8511
314.531	579.93717
314.859	601.15215
315.188	622.33876
315.516	605.39171
315.844	584.18248
316.172	619.16254
316.5	630.80567
316.827	579.93717
317.155	577.81408
317.483	577.81408
317.811	538.48278
318.138	515.04633
318.466	526.76937
318.794	565.06931
319.121	580.99861
319.449	567.19418
319.776	559.75581
320.103	553.37712
320.431	565.06931
320.758	569.31875
321.085	567.19418
321.412	573.56701
321.739	571.44303
322.066	561.88144
322.393	562.94414
322.72	561.88144
323.047	561.88144
323.374	587.3657
323.701	585.24363
324.028	576.75242
324.354	553.37712
324.681	552.31374
325.008	608.57064
325.334	611.74894
325.661	575.69069
325.987	587.3657
326.314	592.66961
326.64	554.44043
326.966	553.37712
327.293	588.42663
327.619	573.56701
327.945	561.88144
328.271	570.38093
328.597	551.25029
328.923	554.44043
329.249	573.56701
329.575	585.24363
329.901	573.56701
330.227	569.31875
330.552	579.93717
330.878	589.48748
331.204	570.38093
331.529	558.69289
331.855	568.25651
332.18	587.3657
332.506	590.54827
332.831	567.19418
333.156	576.75242
333.482	592.66961
333.807	560.81866
334.132	573.56701
334.457	618.10366
334.782	607.51107
335.107	588.42663
335.432	560.81866
335.757	544.86793
336.082	555.50366
336.407	557.62989
336.732	565.06931
337.057	572.50506
337.381	533.15969
337.706	532.09483
338.031	574.62889
338.355	569.31875
338.68	577.81408
339.004	595.8511
339.329	588.42663
339.653	575.69069
339.977	554.44043
340.301	583.12126
340.626	580.99861
340.95	571.44303
341.274	593.73018
341.598	576.75242
341.922	585.24363
342.246	555.50366
342.57	546.99569
342.894	573.56701
343.218	572.50506
343.541	589.48748
343.865	606.45143
344.189	602.21215
344.512	577.81408
344.836	559.75581
345.159	577.81408
345.483	594.79068
345.806	588.42663
346.13	587.3657
346.453	583.12126
346.776	586.3047
347.099	594.79068
347.423	580.99861
347.746	560.81866
348.069	568.25651
348.392	564.00676
348.715	571.44303
349.038	578.87566
349.361	567.19418
349.683	562.94414
350.006	564.00676
350.329	586.3047
350.652	590.54827
350.974	570.38093
351.297	549.12314
351.619	567.19418
351.942	584.18248
352.264	568.25651
352.587	553.37712
352.909	541.6757
353.231	551.25029
353.554	559.75581
353.876	553.37712
354.198	551.25029
354.52	553.37712
354.842	570.38093
355.164	597.97173
355.486	580.99861
355.808	564.00676
356.13	566.13178
356.452	585.24363
356.773	594.79068
357.095	576.75242
357.417	586.3047
357.738	571.44303
358.06	546.99569
358.381	539.54717
358.703	534.22446
359.024	566.13178
359.346	589.48748
359.667	562.94414
359.988	546.99569
360.309	556.56681
360.631	553.37712
360.952	560.81866
361.273	567.19418
361.594	584.18248
361.915	607.51107
362.236	574.62889
362.557	549.12314
362.878	565.06931
363.198	556.56681
363.519	549.12314
363.84	546.99569
364.16	535.28916
364.481	582.05997
364.802	608.57064
365.122	591.60898
365.443	579.93717
365.763	538.48278
366.083	553.37712
366.404	580.99861
366.724	597.97173
367.044	603.27207
367.364	571.44303
367.685	589.48748
368.005	564.00676
368.325	552.31374
368.645	579.93717
368.965	567.19418
369.284	554.44043
369.604	560.81866
369.924	568.25651
370.244	577.81408
370.564	587.3657
370.883	579.93717
371.203	602.21215
371.522	602.21215
371.842	590.54827
372.161	591.60898
372.481	577.81408
372.8	560.81866
373.119	536.35378
373.439	560.81866
373.758	562.94414
374.077	555.50366
374.396	567.19418
374.715	552.31374
375.034	537.41832
375.353	570.38093
375.672	585.24363
375.991	561.88144
376.31	564.00676
376.629	555.50366
376.948	551.25029
377.266	544.86793
377.585	580.99861
377.904	596.91145
378.222	570.38093
378.541	555.50366
378.859	555.50366
379.178	570.38093
379.496	560.81866
379.814	564.00676
380.133	546.99569
380.451	538.48278
380.769	590.54827
381.087	604.33193
381.405	571.44303
381.723	550.18675
382.041	555.50366
382.359	593.73018
382.677	612.80824
382.995	585.24363
383.313	560.81866
383.631	549.12314
383.949	539.54717
384.266	550.18675
384.584	570.38093
384.901	567.19418
385.219	561.88144
385.537	548.05945
385.854	552.31374
386.171	575.69069
386.489	608.57064
386.806	626.57276
387.123	622.33876
387.441	615.9857
387.758	585.24363
388.075	592.66961
388.392	592.66961
388.709	551.25029
389.026	548.05945
389.343	579.93717
389.66	599.03194
389.977	580.99861
390.294	572.50506
390.61	568.25651
390.927	554.44043
391.244	586.3047
391.56	593.73018
391.877	558.69289
392.193	557.62989
392.51	572.50506
392.826	568.25651
393.143	568.25651
393.459	553.37712
393.775	538.48278
394.092	560.81866
394.408	558.69289
394.724	577.81408
395.04	568.25651
395.356	556.56681
395.672	612.80824
395.988	600.09208
396.304	554.44043
396.62	567.19418
396.936	588.42663
397.252	574.62889
397.567	557.62989
397.883	549.12314
398.199	566.13178
398.514	562.94414
398.83	554.44043
399.146	579.93717
399.461	608.57064
399.777	592.66961
400.092	573.56701
400.407	557.62989
400.723	540.61148
401.038	549.12314
401.353	567.19418
401.668	602.21215
401.983	602.21215
402.298	575.69069
402.613	575.69069
402.928	558.69289
403.243	558.69289
403.558	571.44303
403.873	561.88144
404.188	542.73986
404.503	533.15969
404.817	559.75581
405.132	585.24363
405.447	582.05997
405.761	600.09208
406.076	620.22135
406.39	584.18248
406.705	565.06931
407.019	574.62889
407.334	554.44043
407.648	546.99569
407.962	573.56701
408.276	589.48748
408.591	570.38093
408.905	558.69289
409.219	577.81408
409.533	588.42663
409.847	593.73018
410.161	572.50506
410.475	554.44043
410.789	541.6757
411.102	564.00676
411.416	618.10366
411.73	625.51436
412.044	561.88144
412.357	528.89979
412.671	561.88144
412.984	586.3047
413.298	590.54827
413.611	601.15215
413.925	611.74894
414.238	593.73018
414.552	608.57064
414.865	603.27207
415.178	580.99861
415.491	589.48748
415.804	608.57064
416.118	601.15215
416.431	587.3657
416.744	592.66961
417.057	576.75242
417.37	573.56701
417.683	578.87566
417.995	587.3657
418.308	570.38093
418.621	542.73986
418.934	528.89979
419.246	562.94414
419.559	585.24363
419.872	573.56701
420.184	590.54827
420.497	576.75242
420.809	585.24363
421.121	570.38093
421.434	557.62989
421.746	573.56701
422.058	561.88144
422.371	569.31875
422.683	566.13178
422.995	572.50506
423.307	574.62889
423.619	565.06931
423.931	580.99861
424.243	591.60898
424.555	556.56681
424.867	555.50366
425.179	604.33193
425.491	594.79068
425.802	557.62989
426.114	570.38093
426.426	577.81408
426.737	570.38093
427.049	580.99861
427.361	595.8511
427.672	572.50506
427.984	561.88144
428.295	610.68958
428.606	597.97173
428.918	573.56701
429.229	639.26825
429.54	626.57276
429.851	558.69289
430.163	570.38093
430.474	582.05997
430.785	583.12126
431.096	568.25651
431.407	529.96488
431.718	544.86793
432.029	587.3657
432.339	580.99861
432.65	591.60898
432.961	597.97173
433.272	582.05997
433.582	589.48748
433.893	583.12126
434.204	545.93185
434.514	561.88144
434.825	583.12126
435.135	582.05997
435.446	606.45143
435.756	589.48748
436.066	568.25651
436.377	615.9857
436.687	599.03194
436.997	548.05945
437.307	575.69069
437.617	570.38093
437.927	558.69289
438.237	559.75581
438.547	574.62889
438.857	573.56701
439.167	568.25651
439.477	557.62989
439.787	551.25029
440.097	578.87566
440.407	576.75242
440.716	565.06931
441.026	561.88144
441.336	590.54827
441.645	599.03194
441.955	588.42663
442.264	623.39736
442.574	623.39736
442.883	602.21215
443.192	587.3657
443.502	580.99861
443.811	613.86746
444.12	618.10366
444.429	589.48748
444.739	544.86793
445.048	558.69289
445.357	585.24363
445.666	592.66961
445.975	595.8511
446.284	555.50366
446.593	572.50506
446.901	582.05997
447.21	561.88144
447.519	571.44303
447.828	585.24363
448.136	597.97173
448.445	589.48748
448.754	585.24363
449.062	599.03194
449.371	608.57064
449.679	575.69069
449.988	552.31374
450.296	567.19418
450.605	554.44043
450.913	560.81866
451.221	610.68958
451.529	613.86746
451.838	587.3657
452.146	578.87566
452.454	577.81408
452.762	600.09208
453.07	591.60898
453.378	558.69289
453.686	570.38093
453.994	597.97173
454.302	621.28009
454.609	609.63015
454.917	577.81408
455.225	576.75242
455.533	573.56701
455.84	577.81408
456.148	569.31875
456.455	564.00676
456.763	573.56701
457.07	580.99861
457.378	599.03194
457.685	593.73018
457.993	575.69069
458.3	576.75242
458.607	576.75242
458.915	571.44303
459.222	603.27207
459.529	614.92662
459.836	590.54827
460.143	578.87566
460.45	553.37712
460.757	519.31038
461.064	555.50366
461.371	593.73018
461.678	559.75581
461.985	578.87566
462.292	612.80824
462.598	589.48748
462.905	579.93717
463.212	604.33193
463.518	571.44303
463.825	552.31374
464.131	614.92662
464.438	590.54827
464.744	534.22446
465.051	546.99569
465.357	585.24363
465.664	589.48748
465.97	564.00676
466.276	536.35378
466.582	557.62989
466.889	593.73018
467.195	575.69069
467.501	566.13178
467.807	584.18248
468.113	592.66961
468.419	572.50506
468.725	567.19418
469.031	577.81408
469.337	619.16254
469.642	601.15215
469.948	574.62889
470.254	602.21215
470.56	573.56701
470.865	555.50366
471.171	565.06931
471.477	578.87566
471.782	567.19418
472.088	567.19418
472.393	596.91145
472.698	591.60898
473.004	574.62889
473.309	580.99861
473.614	594.79068
473.92	588.42663
474.225	567.19418
474.53	556.56681
474.835	582.05997
475.14	595.8511
475.445	571.44303
475.75	583.12126
476.055	584.18248
476.36	579.93717
476.665	583.12126
476.97	572.50506
477.275	577.81408
477.58	577.81408
477.885	591.60898
478.189	587.3657
478.494	574.62889
478.799	580.99861
479.103	569.31875
479.408	551.25029
479.712	545.93185
480.017	557.62989
480.321	556.56681
480.625	551.25029
480.93	565.06931
481.234	553.37712
481.538	569.31875
481.843	596.91145
482.147	565.06931
482.451	562.94414
482.755	599.03194
483.059	607.51107
483.363	597.97173
483.667	571.44303
483.971	567.19418
484.275	586.3047
484.579	575.69069
484.883	573.56701
485.187	572.50506
485.49	566.13178
485.794	584.18248
486.098	578.87566
486.401	562.94414
486.705	553.37712
487.009	532.09483
487.312	541.6757
487.616	580.99861
487.919	575.69069
488.222	568.25651
488.526	587.3657
488.829	591.60898
489.132	578.87566
489.436	553.37712
489.739	566.13178
490.042	573.56701
490.345	564.00676
490.648	580.99861
490.951	572.50506
491.254	580.99861
491.557	623.39736
491.86	614.92662
492.163	561.88144
492.466	552.31374
492.769	577.81408
493.072	574.62889
493.375	584.18248
493.677	579.93717
493.98	587.3657
494.283	605.39171
494.585	585.24363
494.888	555.50366
495.19	549.12314
495.493	566.13178
495.795	593.73018
496.098	617.04472
496.4	628.68935
496.702	578.87566
497.005	557.62989
497.307	626.57276
497.609	593.73018
497.911	580.99861
498.213	615.9857
498.515	606.45143
498.818	561.88144
499.12	524.63863
499.422	560.81866
499.723	574.62889
500.025	579.93717
500.327	588.42663
500.629	586.3047
500.931	577.81408
501.233	573.56701
501.534	567.19418
501.836	559.75581
502.138	588.42663
502.439	605.39171
502.741	586.3047
503.042	571.44303
503.344	593.73018
503.645	630.80567
503.947	623.39736
504.248	599.03194
504.55	605.39171
504.851	584.18248
505.152	574.62889
505.453	570.38093
505.755	564.00676
506.056	566.13178
506.357	572.50506
506.658	577.81408
506.959	564.00676
507.26	572.50506
507.561	562.94414
507.862	561.88144
508.163	573.56701
508.464	586.3047
508.764	580.99861
509.065	585.24363
509.366	603.27207
509.667	604.33193
509.967	579.93717
510.268	542.73986
510.569	550.18675
510.869	554.44043
511.17	550.18675
511.47	562.94414
511.771	572.50506
512.071	579.93717
512.371	568.25651
512.672	565.06931
512.972	577.81408
513.272	571.44303
513.573	568.25651
513.873	577.81408
514.173	570.38093
514.473	551.25029
514.773	578.87566
515.073	586.3047
515.373	572.50506
515.673	585.24363
515.973	592.66961
516.273	579.93717
516.573	569.31875
516.873	568.25651
517.172	554.44043
517.472	560.81866
517.772	560.81866
518.072	569.31875
518.371	605.39171
518.671	587.3657
518.97	573.56701
519.27	594.79068
519.569	588.42663
519.869	585.24363
520.168	555.50366
520.468	558.69289
520.767	574.62889
521.066	568.25651
521.366	570.38093
521.665	569.31875
521.964	572.50506
522.263	541.6757
522.562	565.06931
522.861	589.48748
523.161	556.56681
523.46	545.93185
523.759	568.25651
524.057	608.57064
524.356	605.39171
524.655	583.12126
524.954	571.44303
525.253	582.05997
525.552	601.15215
525.85	576.75242
526.149	558.69289
526.448	591.60898
526.746	595.8511
527.045	564.00676
527.344	569.31875
527.642	590.54827
527.941	596.91145
528.239	586.3047
528.537	574.62889
528.836	580.99861
529.134	597.97173
529.432	568.25651
529.731	541.6757
530.029	553.37712
530.327	569.31875
530.625	562.94414
530.923	523.57314
531.221	535.28916
531.52	602.21215
531.818	597.97173
532.116	564.00676
532.413	554.44043
532.711	535.28916
533.009	569.31875
533.307	586.3047
533.605	575.69069
533.903	600.09208
534.2	592.66961
534.498	566.13178
534.796	551.25029
535.093	564.00676
535.391	575.69069
535.689	564.00676
535.986	571.44303
536.284	566.13178
536.581	556.56681
536.878	552.31374
537.176	549.12314
537.473	549.12314
537.77	556.56681
538.068	570.38093
538.365	569.31875
538.662	591.60898
538.959	606.45143
539.256	575.69069
539.554	562.94414
