Data from dark_beginning_ST026791__128__1226.txt Node

Date: Mon Aug 18 22:10:26 AEST 2025
User: mathewyoussef
Spectrometer: ST02679
Trigger mode: 0
Integration Time (sec): 6.653700E-1
Scans to average: 1
Nonlinearity correction enabled: true
Boxcar width: 0
Storing dark spectrum: false
XAxis mode: Wavelengths
Number of Pixels in Spectrum: 1516
>>>>>Begin Spectral Data<<<<<
187.304	570.38093
187.653	559.75581
188.002	582.05997
188.351	595.8511
188.7	580.99861
189.048	551.25029
189.397	585.24363
189.746	602.21215
190.094	567.19418
190.443	557.62989
190.791	559.75581
191.14	577.81408
191.488	565.06931
191.837	579.93717
192.185	603.27207
192.533	594.79068
192.881	625.51436
193.229	603.27207
193.577	564.00676
193.925	565.06931
194.273	557.62989
194.621	571.44303
194.969	571.44303
195.317	567.19418
195.664	595.8511
196.012	583.12126
196.359	543.80393
196.707	554.44043
197.054	569.31875
197.402	578.87566
197.749	585.24363
198.096	562.94414
198.443	561.88144
198.791	569.31875
199.138	578.87566
199.485	595.8511
199.832	595.8511
200.179	578.87566
200.525	559.75581
200.872	566.13178
201.219	569.31875
201.566	572.50506
201.912	583.12126
202.259	583.12126
202.605	559.75581
202.952	553.37712
203.298	560.81866
203.644	583.12126
203.991	584.18248
204.337	548.05945
204.683	557.62989
205.029	568.25651
205.375	565.06931
205.721	597.97173
206.067	590.54827
206.413	582.05997
206.759	586.3047
207.104	536.35378
207.45	544.86793
207.796	559.75581
208.141	570.38093
208.487	586.3047
208.832	574.62889
209.177	572.50506
209.523	568.25651
209.868	565.06931
210.213	562.94414
210.558	546.99569
210.903	562.94414
211.248	574.62889
211.593	561.88144
211.938	565.06931
212.283	587.3657
212.628	588.42663
212.973	565.06931
213.317	552.31374
213.662	571.44303
214.007	593.73018
214.351	565.06931
214.696	548.05945
215.04	567.19418
215.384	593.73018
215.729	592.66961
216.073	570.38093
216.417	562.94414
216.761	549.12314
217.105	572.50506
217.449	604.33193
217.793	599.03194
218.137	565.06931
218.481	560.81866
218.824	594.79068
219.168	585.24363
219.512	572.50506
219.855	573.56701
220.199	571.44303
220.542	556.56681
220.886	553.37712
221.229	571.44303
221.572	574.62889
221.916	593.73018
222.259	593.73018
222.602	585.24363
222.945	591.60898
223.288	602.21215
223.631	589.48748
223.974	572.50506
224.317	554.44043
224.659	552.31374
225.002	580.99861
225.345	561.88144
225.687	582.05997
226.03	605.39171
226.372	573.56701
226.715	557.62989
227.057	564.00676
227.4	588.42663
227.742	618.10366
228.084	608.57064
228.426	580.99861
228.768	560.81866
229.11	565.06931
229.452	580.99861
229.794	570.38093
230.136	558.69289
230.478	579.93717
230.82	580.99861
231.161	576.75242
231.503	615.9857
231.845	592.66961
232.186	621.28009
232.528	636.09528
232.869	566.13178
233.21	541.6757
233.552	540.61148
233.893	569.31875
234.234	557.62989
234.575	551.25029
234.916	608.57064
235.257	611.74894
235.598	588.42663
235.939	587.3657
236.28	570.38093
236.621	540.61148
236.961	568.25651
237.302	612.80824
237.643	596.91145
237.983	582.05997
238.324	566.13178
238.664	623.39736
239.005	630.80567
239.345	587.3657
239.685	599.03194
240.025	580.99861
240.366	586.3047
240.706	602.21215
241.046	571.44303
241.386	580.99861
241.726	614.92662
242.066	605.39171
242.405	589.48748
242.745	588.42663
243.085	592.66961
243.425	580.99861
243.764	608.57064
244.104	646.66949
244.443	637.15301
244.783	611.74894
245.122	596.91145
245.461	589.48748
245.801	578.87566
246.14	586.3047
246.479	588.42663
246.818	553.37712
247.157	591.60898
247.496	606.45143
247.835	538.48278
248.174	556.56681
248.513	596.91145
248.852	631.86373
249.19	640.32577
249.529	611.74894
249.868	585.24363
250.206	550.18675
250.545	564.00676
250.883	559.75581
251.221	566.13178
251.56	574.62889
251.898	577.81408
252.236	576.75242
252.574	553.37712
252.912	569.31875
253.25	575.69069
253.588	572.50506
253.926	588.42663
254.264	589.48748
254.602	558.69289
254.94	569.31875
255.278	602.21215
255.615	608.57064
255.953	592.66961
256.29	561.88144
256.628	548.05945
256.965	567.19418
257.303	582.05997
257.64	600.09208
257.977	605.39171
258.314	588.42663
258.652	555.50366
258.989	556.56681
259.326	582.05997
259.663	600.09208
260	595.8511
260.337	571.44303
260.673	560.81866
261.01	567.19418
261.347	600.09208
261.684	584.18248
262.02	578.87566
262.357	575.69069
262.693	559.75581
263.03	582.05997
263.366	574.62889
263.702	564.00676
264.039	577.81408
264.375	597.97173
264.711	621.28009
265.047	601.15215
265.383	564.00676
265.719	566.13178
266.055	571.44303
266.391	601.15215
266.727	608.57064
267.063	565.06931
267.399	540.61148
267.734	542.73986
268.07	551.25029
268.405	568.25651
268.741	585.24363
269.076	589.48748
269.412	586.3047
269.747	567.19418
270.082	556.56681
270.418	589.48748
270.753	593.73018
271.088	567.19418
271.423	582.05997
271.758	574.62889
272.093	560.81866
272.428	552.31374
272.763	578.87566
273.098	595.8511
273.433	570.38093
273.767	582.05997
274.102	583.12126
274.436	569.31875
274.771	585.24363
275.106	591.60898
275.44	599.03194
275.774	587.3657
276.109	569.31875
276.443	579.93717
276.777	584.18248
277.111	620.22135
277.445	609.63015
277.78	556.56681
278.114	565.06931
278.447	595.8511
278.781	603.27207
279.115	587.3657
279.449	566.13178
279.783	561.88144
280.116	572.50506
280.45	554.44043
280.784	555.50366
281.117	587.3657
281.451	576.75242
281.784	615.9857
282.117	623.39736
282.451	569.31875
282.784	568.25651
283.117	593.73018
283.45	613.86746
283.783	591.60898
284.116	600.09208
284.449	610.68958
284.782	615.9857
285.115	619.16254
285.448	589.48748
285.781	571.44303
286.114	565.06931
286.446	566.13178
286.779	584.18248
287.111	567.19418
287.444	526.76937
287.776	553.37712
288.109	587.3657
288.441	562.94414
288.773	552.31374
289.106	605.39171
289.438	611.74894
289.77	564.00676
290.102	576.75242
290.434	606.45143
290.766	615.9857
291.098	586.3047
291.43	569.31875
291.762	575.69069
292.094	582.05997
292.425	582.05997
292.757	559.75581
293.089	570.38093
293.42	576.75242
293.752	560.81866
294.083	568.25651
294.414	577.81408
294.746	574.62889
295.077	578.87566
295.408	593.73018
295.74	615.9857
296.071	592.66961
296.402	575.69069
296.733	593.73018
297.064	574.62889
297.395	557.62989
297.726	561.88144
298.056	564.00676
298.387	571.44303
298.718	606.45143
299.049	613.86746
299.379	553.37712
299.71	540.61148
300.04	568.25651
300.371	544.86793
300.701	541.6757
301.031	586.3047
301.362	586.3047
301.692	577.81408
302.022	579.93717
302.352	560.81866
302.682	562.94414
303.012	585.24363
303.342	589.48748
303.672	577.81408
304.002	549.12314
304.332	558.69289
304.662	593.73018
304.992	585.24363
305.321	577.81408
305.651	590.54827
305.98	585.24363
306.31	580.99861
306.639	596.91145
306.969	574.62889
307.298	555.50366
307.628	569.31875
307.957	560.81866
308.286	570.38093
308.615	592.66961
308.944	569.31875
309.273	548.05945
309.602	572.50506
309.931	590.54827
310.26	580.99861
310.589	564.00676
310.918	565.06931
311.247	601.15215
311.575	600.09208
311.904	580.99861
312.233	583.12126
312.561	578.87566
312.89	588.42663
313.218	617.04472
313.546	597.97173
313.875	564.00676
314.203	573.56701
314.531	583.12126
314.859	571.44303
315.188	562.94414
315.516	564.00676
315.844	567.19418
316.172	602.21215
316.5	635.0375
316.827	591.60898
317.155	558.69289
317.483	587.3657
317.811	588.42663
318.138	572.50506
318.466	574.62889
318.794	582.05997
319.121	591.60898
319.449	577.81408
319.776	543.80393
320.103	542.73986
320.431	572.50506
320.758	591.60898
321.085	611.74894
321.412	613.86746
321.739	608.57064
322.066	624.4559
322.393	558.69289
322.72	546.99569
323.047	600.09208
323.374	619.16254
323.701	587.3657
324.028	565.06931
324.354	574.62889
324.681	548.05945
325.008	555.50366
325.334	541.6757
325.661	555.50366
325.987	622.33876
326.314	624.4559
326.64	601.15215
326.966	614.92662
327.293	590.54827
327.619	564.00676
327.945	551.25029
328.271	565.06931
328.597	593.73018
328.923	577.81408
329.249	579.93717
329.575	570.38093
329.901	541.6757
330.227	567.19418
330.552	588.42663
330.878	584.18248
331.204	580.99861
331.529	561.88144
331.855	591.60898
332.18	579.93717
332.506	561.88144
332.831	574.62889
333.156	575.69069
333.482	599.03194
333.807	583.12126
334.132	560.81866
334.457	588.42663
334.782	600.09208
335.107	575.69069
335.432	561.88144
335.757	559.75581
336.082	560.81866
336.407	543.80393
336.732	515.04633
337.057	562.94414
337.381	614.92662
337.706	600.09208
338.031	583.12126
338.355	553.37712
338.68	568.25651
339.004	604.33193
339.329	605.39171
339.653	587.3657
339.977	543.80393
340.301	565.06931
340.626	568.25651
340.95	558.69289
341.274	564.00676
341.598	540.61148
341.922	578.87566
342.246	597.97173
342.57	577.81408
342.894	570.38093
343.218	577.81408
343.541	590.54827
343.865	585.24363
344.189	588.42663
344.512	585.24363
344.836	593.73018
345.159	568.25651
345.483	561.88144
345.806	579.93717
346.13	586.3047
346.453	599.03194
346.776	586.3047
347.099	580.99861
347.423	575.69069
347.746	583.12126
348.069	597.97173
348.392	604.33193
348.715	583.12126
349.038	562.94414
349.361	609.63015
349.683	640.32577
350.006	603.27207
350.329	573.56701
350.652	599.03194
350.974	595.8511
351.297	538.48278
351.619	561.88144
351.942	596.91145
352.264	584.18248
352.587	569.31875
352.909	567.19418
353.231	588.42663
353.554	588.42663
353.876	558.69289
354.198	579.93717
354.52	586.3047
354.842	571.44303
355.164	576.75242
355.486	612.80824
355.808	588.42663
356.13	539.54717
356.452	604.33193
356.773	604.33193
357.095	564.00676
357.417	586.3047
357.738	597.97173
358.06	597.97173
358.381	575.69069
358.703	564.00676
359.024	561.88144
359.346	557.62989
359.667	589.48748
359.988	591.60898
360.309	589.48748
360.631	602.21215
360.952	582.05997
361.273	561.88144
361.594	577.81408
361.915	595.8511
362.236	595.8511
362.557	610.68958
362.878	613.86746
363.198	583.12126
363.519	567.19418
363.84	580.99861
364.16	584.18248
364.481	588.42663
364.802	559.75581
365.122	559.75581
365.443	614.92662
365.763	643.49793
366.083	589.48748
366.404	545.93185
366.724	559.75581
367.044	555.50366
367.364	569.31875
367.685	567.19418
368.005	567.19418
368.325	586.3047
368.645	580.99861
368.965	573.56701
369.284	566.13178
369.604	582.05997
369.924	571.44303
370.244	609.63015
370.564	639.26825
370.883	569.31875
371.203	591.60898
371.522	617.04472
371.842	583.12126
372.161	579.93717
372.481	579.93717
372.8	564.00676
373.119	607.51107
373.439	620.22135
373.758	558.69289
374.077	550.18675
374.396	577.81408
374.715	583.12126
375.034	583.12126
375.353	586.3047
375.672	582.05997
375.991	577.81408
376.31	562.94414
376.629	562.94414
376.948	575.69069
377.266	558.69289
377.585	584.18248
377.904	596.91145
378.222	565.06931
378.541	582.05997
378.859	575.69069
379.178	566.13178
379.496	609.63015
379.814	620.22135
380.133	576.75242
380.451	569.31875
380.769	584.18248
381.087	569.31875
381.405	558.69289
381.723	537.41832
382.041	549.12314
382.359	585.24363
382.677	577.81408
382.995	558.69289
383.313	559.75581
383.631	558.69289
383.949	552.31374
384.266	546.99569
384.584	554.44043
384.901	574.62889
385.219	594.79068
385.537	597.97173
385.854	577.81408
386.171	555.50366
386.489	565.06931
386.806	617.04472
387.123	620.22135
387.441	587.3657
387.758	575.69069
388.075	567.19418
388.392	570.38093
388.709	559.75581
389.026	548.05945
389.343	555.50366
389.66	554.44043
389.977	570.38093
390.294	614.92662
390.61	606.45143
390.927	585.24363
391.244	606.45143
391.56	599.03194
391.877	566.13178
392.193	565.06931
392.51	562.94414
392.826	542.73986
393.143	528.89979
393.459	550.18675
393.775	583.12126
394.092	565.06931
394.408	532.09483
394.724	541.6757
395.04	561.88144
395.356	574.62889
395.672	562.94414
395.988	562.94414
396.304	572.50506
396.62	587.3657
396.936	611.74894
397.252	582.05997
397.567	557.62989
397.883	564.00676
398.199	584.18248
398.514	582.05997
398.83	574.62889
399.146	568.25651
399.461	565.06931
399.777	560.81866
400.092	583.12126
400.407	604.33193
400.723	585.24363
401.038	577.81408
401.353	577.81408
401.668	579.93717
401.983	569.31875
402.298	578.87566
402.613	586.3047
402.928	573.56701
403.243	560.81866
403.558	575.69069
403.873	594.79068
404.188	571.44303
404.503	582.05997
404.817	577.81408
405.132	557.62989
405.447	587.3657
405.761	617.04472
406.076	611.74894
406.39	584.18248
406.705	583.12126
407.019	596.91145
407.334	595.8511
407.648	574.62889
407.962	561.88144
408.276	574.62889
408.591	569.31875
408.905	556.56681
409.219	569.31875
409.533	571.44303
409.847	568.25651
410.161	560.81866
410.475	548.05945
410.789	566.13178
411.102	583.12126
411.416	612.80824
411.73	629.74755
412.044	589.48748
412.357	565.06931
412.671	575.69069
412.984	559.75581
413.298	564.00676
413.611	617.04472
413.925	620.22135
414.238	575.69069
414.552	565.06931
414.865	562.94414
415.178	556.56681
415.491	580.99861
415.804	592.66961
416.118	590.54827
416.431	575.69069
416.744	559.75581
417.057	574.62889
417.37	577.81408
417.683	567.19418
417.995	571.44303
418.308	574.62889
418.621	579.93717
418.934	580.99861
419.246	568.25651
419.559	603.27207
419.872	611.74894
420.184	564.00676
420.497	550.18675
420.809	566.13178
421.121	556.56681
421.434	554.44043
421.746	556.56681
422.058	594.79068
422.371	603.27207
422.683	564.00676
422.995	554.44043
423.307	575.69069
423.619	626.57276
423.931	593.73018
424.243	575.69069
424.555	586.3047
424.867	584.18248
425.179	605.39171
425.491	593.73018
425.802	572.50506
426.114	578.87566
426.426	601.15215
426.737	601.15215
427.049	587.3657
427.361	599.03194
427.672	572.50506
427.984	546.99569
428.295	562.94414
428.606	545.93185
428.918	561.88144
429.229	653.01083
429.54	651.95411
429.851	557.62989
430.163	532.09483
430.474	580.99861
430.785	614.92662
431.096	597.97173
431.407	574.62889
431.718	580.99861
432.029	611.74894
432.339	585.24363
432.65	554.44043
432.961	560.81866
433.272	557.62989
433.582	573.56701
433.893	579.93717
434.204	577.81408
434.514	580.99861
434.825	561.88144
435.135	551.25029
435.446	605.39171
435.756	626.57276
436.066	591.60898
436.377	587.3657
436.687	575.69069
436.997	570.38093
437.307	576.75242
437.617	580.99861
437.927	579.93717
438.237	586.3047
438.547	578.87566
438.857	564.00676
439.167	574.62889
439.477	573.56701
439.787	588.42663
440.097	573.56701
440.407	551.25029
440.716	566.13178
441.026	580.99861
441.336	586.3047
441.645	580.99861
441.955	553.37712
442.264	545.93185
442.574	567.19418
442.883	589.48748
443.192	599.03194
443.502	597.97173
443.811	576.75242
444.12	551.25029
444.429	561.88144
444.739	571.44303
445.048	603.27207
445.357	610.68958
445.666	570.38093
445.975	575.69069
446.284	588.42663
446.593	589.48748
446.901	591.60898
447.21	560.81866
447.519	543.80393
447.828	551.25029
448.136	568.25651
448.445	594.79068
448.754	595.8511
449.062	600.09208
449.371	630.80567
449.679	615.9857
449.988	578.87566
450.296	559.75581
450.605	551.25029
450.913	558.69289
451.221	596.91145
451.529	571.44303
451.838	561.88144
452.146	580.99861
452.454	557.62989
452.762	603.27207
453.07	595.8511
453.378	573.56701
453.686	574.62889
453.994	580.99861
454.302	569.31875
454.609	540.61148
454.917	541.6757
455.225	564.00676
455.533	584.18248
455.84	552.31374
456.148	569.31875
456.455	594.79068
456.763	606.45143
457.07	604.33193
457.378	592.66961
457.685	582.05997
457.993	561.88144
458.3	584.18248
458.607	589.48748
458.915	561.88144
459.222	575.69069
459.529	578.87566
459.836	583.12126
460.143	586.3047
460.45	551.25029
460.757	542.73986
461.064	572.50506
461.371	605.39171
461.678	587.3657
461.985	584.18248
462.292	591.60898
462.598	575.69069
462.905	601.15215
463.212	604.33193
463.518	556.56681
463.825	560.81866
464.131	597.97173
464.438	610.68958
464.744	601.15215
465.051	582.05997
465.357	565.06931
465.664	549.12314
465.97	568.25651
466.276	580.99861
466.582	564.00676
466.889	561.88144
467.195	576.75242
467.501	587.3657
467.807	592.66961
468.113	584.18248
468.419	579.93717
468.725	557.62989
469.031	554.44043
469.337	593.73018
469.642	611.74894
469.948	588.42663
470.254	579.93717
470.56	589.48748
470.865	565.06931
471.171	549.12314
471.477	572.50506
471.782	553.37712
472.088	528.89979
472.393	612.80824
472.698	613.86746
473.004	566.13178
473.309	594.79068
473.614	602.21215
473.92	588.42663
474.225	566.13178
474.53	565.06931
474.835	577.81408
475.14	566.13178
475.445	588.42663
475.75	597.97173
476.055	568.25651
476.36	584.18248
476.665	609.63015
476.97	607.51107
477.275	615.9857
477.58	590.54827
477.885	580.99861
478.189	578.87566
478.494	577.81408
478.799	577.81408
479.103	562.94414
479.408	565.06931
479.712	550.18675
480.017	552.31374
480.321	579.93717
480.625	602.21215
480.93	607.51107
481.234	583.12126
481.538	574.62889
481.843	603.27207
482.147	624.4559
482.451	593.73018
482.755	560.81866
483.059	586.3047
483.363	607.51107
483.667	591.60898
483.971	571.44303
484.275	578.87566
484.579	554.44043
484.883	557.62989
485.187	574.62889
485.49	561.88144
485.794	571.44303
486.098	561.88144
486.401	556.56681
486.705	561.88144
487.009	556.56681
487.312	568.25651
487.616	603.27207
487.919	578.87566
488.222	575.69069
488.526	591.60898
488.829	582.05997
489.132	576.75242
489.436	523.57314
489.739	519.31038
490.042	564.00676
490.345	592.66961
490.648	589.48748
490.951	572.50506
491.254	577.81408
491.557	584.18248
491.86	554.44043
492.163	537.41832
492.466	568.25651
492.769	606.45143
493.072	586.3047
493.375	571.44303
493.677	597.97173
493.98	560.81866
494.283	556.56681
494.585	570.38093
494.888	571.44303
495.19	570.38093
495.493	550.18675
495.795	584.18248
496.098	599.03194
496.4	600.09208
496.702	614.92662
497.005	607.51107
497.307	615.9857
497.609	567.19418
497.911	544.86793
498.213	594.79068
498.515	584.18248
498.818	566.13178
499.12	571.44303
499.422	593.73018
499.723	617.04472
500.025	607.51107
500.327	570.38093
500.629	584.18248
500.931	577.81408
501.233	567.19418
501.534	549.12314
501.836	511.84745
502.138	545.93185
502.439	576.75242
502.741	573.56701
503.042	567.19418
503.344	562.94414
503.645	574.62889
503.947	566.13178
504.248	548.05945
504.55	569.31875
504.851	570.38093
505.152	578.87566
505.453	584.18248
505.755	591.60898
506.056	593.73018
506.357	561.88144
506.658	566.13178
506.959	574.62889
507.26	593.73018
507.561	593.73018
507.862	593.73018
508.163	584.18248
508.464	561.88144
508.764	594.79068
509.065	575.69069
509.366	602.21215
509.667	631.86373
509.967	573.56701
510.268	562.94414
510.569	573.56701
510.869	562.94414
511.17	557.62989
511.47	546.99569
511.771	564.00676
512.071	572.50506
512.371	584.18248
512.672	593.73018
512.972	557.62989
513.272	546.99569
513.573	550.18675
513.873	551.25029
514.173	548.05945
514.473	568.25651
514.773	611.74894
515.073	605.39171
515.373	583.12126
515.673	573.56701
515.973	580.99861
516.273	565.06931
516.573	539.54717
516.873	558.69289
517.172	570.38093
517.472	580.99861
517.772	600.09208
518.072	592.66961
518.371	587.3657
518.671	582.05997
518.97	575.69069
519.27	595.8511
519.569	586.3047
519.869	599.03194
520.168	618.10366
520.468	551.25029
520.767	538.48278
521.066	543.80393
521.366	565.06931
521.665	609.63015
521.964	584.18248
522.263	612.80824
522.562	604.33193
522.861	549.12314
523.161	569.31875
523.46	597.97173
523.759	611.74894
524.057	602.21215
524.356	595.8511
524.655	605.39171
524.954	575.69069
525.253	560.81866
525.552	599.03194
525.85	588.42663
526.149	576.75242
526.448	582.05997
526.746	568.25651
527.045	568.25651
527.344	599.03194
527.642	609.63015
527.941	595.8511
528.239	570.38093
528.537	552.31374
528.836	570.38093
529.134	570.38093
529.432	556.56681
529.731	540.61148
530.029	537.41832
530.327	572.50506
530.625	573.56701
530.923	549.12314
531.221	562.94414
531.52	604.33193
531.818	607.51107
532.116	575.69069
532.413	588.42663
532.711	579.93717
533.009	564.00676
533.307	566.13178
533.605	566.13178
533.903	566.13178
534.2	562.94414
534.498	582.05997
534.796	586.3047
535.093	551.25029
535.391	539.54717
535.689	585.24363
535.986	606.45143
536.284	609.63015
536.581	593.73018
536.878	574.62889
537.176	590.54827
537.473	600.09208
537.77	608.57064
538.068	584.18248
538.365	589.48748
538.662	602.21215
538.959	574.62889
539.256	571.44303
539.554	601.15215
539.851	618.10366
