Data from dark_beginning_ST026791__121__1219.txt Node

Date: Mon Aug 18 22:10:16 AEST 2025
User: mathewyoussef
Spectrometer: ST02679
Trigger mode: 0
Integration Time (sec): 6.653700E-1
Scans to average: 1
Nonlinearity correction enabled: true
Boxcar width: 0
Storing dark spectrum: false
XAxis mode: Wavelengths
Number of Pixels in Spectrum: 1516
>>>>>Begin Spectral Data<<<<<
187.304	580.99861
187.653	593.73018
188.002	594.79068
188.351	567.19418
188.7	574.62889
189.048	587.3657
189.397	605.39171
189.746	600.09208
190.094	569.31875
190.443	564.00676
190.791	537.41832
191.14	549.12314
191.488	579.93717
191.837	600.09208
192.185	613.86746
192.533	587.3657
192.881	560.81866
193.229	557.62989
193.577	585.24363
193.925	597.97173
194.273	568.25651
194.621	575.69069
194.969	588.42663
195.317	544.86793
195.664	574.62889
196.012	593.73018
196.359	548.05945
196.707	556.56681
197.054	559.75581
197.402	565.06931
197.749	566.13178
198.096	566.13178
198.443	566.13178
198.791	556.56681
199.138	550.18675
199.485	554.44043
199.832	558.69289
200.179	573.56701
200.525	591.60898
200.872	570.38093
201.219	584.18248
201.566	608.57064
201.912	572.50506
202.259	557.62989
202.605	569.31875
202.952	570.38093
203.298	557.62989
203.644	571.44303
203.991	591.60898
204.337	594.79068
204.683	586.3047
205.029	590.54827
205.375	582.05997
205.721	577.81408
206.067	601.15215
206.413	587.3657
206.759	578.87566
207.104	586.3047
207.45	575.69069
207.796	557.62989
208.141	587.3657
208.487	609.63015
208.832	588.42663
209.177	573.56701
209.523	588.42663
209.868	594.79068
210.213	566.13178
210.558	576.75242
210.903	613.86746
211.248	574.62889
211.593	553.37712
211.938	569.31875
212.283	575.69069
212.628	599.03194
212.973	564.00676
213.317	549.12314
213.662	575.69069
214.007	557.62989
214.351	553.37712
214.696	579.93717
215.04	599.03194
215.384	580.99861
215.729	557.62989
216.073	568.25651
216.417	589.48748
216.761	596.91145
217.105	588.42663
217.449	570.38093
217.793	548.05945
218.137	554.44043
218.481	567.19418
218.824	605.39171
219.168	610.68958
219.512	577.81408
219.855	550.18675
220.199	542.73986
220.542	554.44043
220.886	573.56701
221.229	580.99861
221.572	554.44043
221.916	567.19418
222.259	572.50506
222.602	564.00676
222.945	559.75581
223.288	579.93717
223.631	596.91145
223.974	575.69069
224.317	601.15215
224.659	594.79068
225.002	570.38093
225.345	573.56701
225.687	575.69069
226.03	615.9857
226.372	592.66961
226.715	572.50506
227.057	606.45143
227.4	617.04472
227.742	626.57276
228.084	596.91145
228.426	568.25651
228.768	562.94414
229.11	561.88144
229.452	567.19418
229.794	574.62889
230.136	575.69069
230.478	595.8511
230.82	580.99861
231.161	553.37712
231.503	614.92662
231.845	633.97964
232.186	592.66961
232.528	582.05997
232.869	553.37712
233.21	555.50366
233.552	575.69069
233.893	570.38093
234.234	594.79068
234.575	583.12126
234.916	572.50506
235.257	575.69069
235.598	586.3047
235.939	609.63015
236.28	574.62889
236.621	549.12314
236.961	586.3047
237.302	590.54827
237.643	544.86793
237.983	552.31374
238.324	580.99861
238.664	576.75242
239.005	572.50506
239.345	591.60898
239.685	587.3657
240.025	541.6757
240.366	541.6757
240.706	566.13178
241.046	561.88144
241.386	557.62989
241.726	562.94414
242.066	597.97173
242.405	591.60898
242.745	561.88144
243.085	573.56701
243.425	594.79068
243.764	618.10366
244.104	633.97964
244.443	636.09528
244.783	603.27207
245.122	548.05945
245.461	529.96488
245.801	595.8511
246.14	621.28009
246.479	564.00676
246.818	567.19418
247.157	613.86746
247.496	599.03194
247.835	557.62989
248.174	565.06931
248.513	586.3047
248.852	613.86746
249.19	617.04472
249.529	594.79068
249.868	586.3047
250.206	567.19418
250.545	539.54717
250.883	548.05945
251.221	553.37712
251.56	565.06931
251.898	586.3047
252.236	574.62889
252.574	573.56701
252.912	568.25651
253.25	569.31875
253.588	546.99569
253.926	549.12314
254.264	571.44303
254.602	567.19418
254.94	569.31875
255.278	606.45143
255.615	608.57064
255.953	564.00676
256.29	573.56701
256.628	572.50506
256.965	556.56681
257.303	565.06931
257.64	600.09208
257.977	589.48748
258.314	568.25651
258.652	589.48748
258.989	571.44303
259.326	553.37712
259.663	550.18675
260	566.13178
260.337	554.44043
260.673	520.37619
261.01	535.28916
261.347	559.75581
261.684	572.50506
262.02	583.12126
262.357	584.18248
262.693	559.75581
263.03	541.6757
263.366	571.44303
263.702	587.3657
264.039	577.81408
264.375	573.56701
264.711	583.12126
265.047	574.62889
265.383	582.05997
265.719	587.3657
266.055	556.56681
266.391	604.33193
266.727	608.57064
267.063	558.69289
267.399	545.93185
267.734	577.81408
268.07	572.50506
268.405	549.12314
268.741	565.06931
269.076	564.00676
269.412	577.81408
269.747	569.31875
270.082	552.31374
270.418	553.37712
270.753	579.93717
271.088	594.79068
271.423	558.69289
271.758	542.73986
272.093	557.62989
272.428	578.87566
272.763	589.48748
273.098	573.56701
273.433	562.94414
273.767	569.31875
274.102	574.62889
274.436	595.8511
274.771	612.80824
275.106	583.12126
275.44	602.21215
275.774	640.32577
276.109	599.03194
276.443	571.44303
276.777	579.93717
277.111	589.48748
277.445	587.3657
277.78	599.03194
278.114	583.12126
278.447	535.28916
278.781	540.61148
279.115	585.24363
279.449	580.99861
279.783	551.25029
280.116	568.25651
280.45	578.87566
280.784	578.87566
281.117	588.42663
281.451	568.25651
281.784	610.68958
282.117	640.32577
282.451	588.42663
282.784	583.12126
283.117	590.54827
283.45	584.18248
283.783	573.56701
284.116	575.69069
284.449	558.69289
284.782	578.87566
285.115	583.12126
285.448	559.75581
285.781	562.94414
286.114	557.62989
286.446	564.00676
286.779	604.33193
287.111	603.27207
287.444	548.05945
287.776	535.28916
288.109	545.93185
288.441	573.56701
288.773	590.54827
289.106	587.3657
289.438	579.93717
289.77	568.25651
290.102	571.44303
290.434	569.31875
290.766	591.60898
291.098	597.97173
291.43	587.3657
291.762	588.42663
292.094	583.12126
292.425	578.87566
292.757	570.38093
293.089	583.12126
293.42	582.05997
293.752	579.93717
294.083	590.54827
294.414	566.13178
294.746	539.54717
295.077	541.6757
295.408	567.19418
295.74	574.62889
296.071	580.99861
296.402	600.09208
296.733	585.24363
297.064	552.31374
297.395	557.62989
297.726	576.75242
298.056	608.57064
298.387	601.15215
298.718	595.8511
299.049	602.21215
299.379	536.35378
299.71	535.28916
300.04	574.62889
300.371	567.19418
300.701	562.94414
301.031	593.73018
301.362	571.44303
301.692	551.25029
302.022	587.3657
302.352	576.75242
302.682	582.05997
303.012	578.87566
303.342	568.25651
303.672	590.54827
304.002	569.31875
304.332	541.6757
304.662	560.81866
304.992	572.50506
305.321	577.81408
305.651	590.54827
305.98	580.99861
306.31	577.81408
306.639	585.24363
306.969	562.94414
307.298	573.56701
307.628	575.69069
307.957	552.31374
308.286	565.06931
308.615	564.00676
308.944	564.00676
309.273	573.56701
309.602	578.87566
309.931	579.93717
310.26	576.75242
310.589	558.69289
310.918	557.62989
311.247	584.18248
311.575	578.87566
311.904	562.94414
312.233	580.99861
312.561	559.75581
312.89	527.83462
313.218	574.62889
313.546	623.39736
313.875	604.33193
314.203	561.88144
314.531	578.87566
314.859	576.75242
315.188	540.61148
315.516	557.62989
315.844	571.44303
316.172	591.60898
316.5	599.03194
316.827	592.66961
317.155	561.88144
317.483	561.88144
317.811	578.87566
318.138	570.38093
318.466	560.81866
318.794	535.28916
319.121	540.61148
319.449	571.44303
319.776	567.19418
320.103	561.88144
320.431	597.97173
320.758	595.8511
321.085	589.48748
321.412	574.62889
321.739	582.05997
322.066	601.15215
322.393	562.94414
322.72	553.37712
323.047	584.18248
323.374	606.45143
323.701	590.54827
324.028	588.42663
324.354	562.94414
324.681	553.37712
325.008	608.57064
325.334	614.92662
325.661	597.97173
325.987	596.91145
326.314	600.09208
326.64	602.21215
326.966	599.03194
327.293	571.44303
327.619	558.69289
327.945	570.38093
328.271	582.05997
328.597	609.63015
328.923	608.57064
329.249	561.88144
329.575	560.81866
329.901	574.62889
330.227	587.3657
330.552	620.22135
330.878	607.51107
331.204	558.69289
331.529	555.50366
331.855	567.19418
332.18	573.56701
332.506	579.93717
332.831	590.54827
333.156	604.33193
333.482	573.56701
333.807	565.06931
334.132	585.24363
334.457	583.12126
334.782	573.56701
335.107	549.12314
335.432	540.61148
335.757	550.18675
336.082	558.69289
336.407	582.05997
336.732	583.12126
337.057	566.13178
337.381	560.81866
337.706	562.94414
338.031	579.93717
338.355	572.50506
338.68	582.05997
339.004	592.66961
339.329	593.73018
339.653	580.99861
339.977	561.88144
340.301	587.3657
340.626	587.3657
340.95	577.81408
341.274	546.99569
341.598	540.61148
341.922	569.31875
342.246	586.3047
342.57	587.3657
342.894	576.75242
343.218	585.24363
343.541	611.74894
343.865	589.48748
344.189	580.99861
344.512	578.87566
344.836	559.75581
345.159	577.81408
345.483	570.38093
345.806	555.50366
346.13	572.50506
346.453	565.06931
346.776	552.31374
347.099	549.12314
347.423	577.81408
347.746	580.99861
348.069	571.44303
348.392	595.8511
348.715	582.05997
349.038	574.62889
349.361	575.69069
349.683	584.18248
350.006	570.38093
350.329	558.69289
350.652	562.94414
350.974	580.99861
351.297	596.91145
351.619	582.05997
351.942	579.93717
352.264	569.31875
352.587	556.56681
352.909	576.75242
353.231	600.09208
353.554	586.3047
353.876	556.56681
354.198	554.44043
354.52	564.00676
354.842	582.05997
355.164	610.68958
355.486	579.93717
355.808	571.44303
356.13	599.03194
356.452	603.27207
356.773	592.66961
357.095	551.25029
357.417	566.13178
357.738	593.73018
358.06	587.3657
358.381	576.75242
358.703	588.42663
359.024	593.73018
359.346	607.51107
359.667	602.21215
359.988	589.48748
360.309	591.60898
360.631	572.50506
360.952	560.81866
361.273	558.69289
361.594	588.42663
361.915	588.42663
362.236	573.56701
362.557	569.31875
362.878	567.19418
363.198	552.31374
363.519	537.41832
363.84	564.00676
364.16	580.99861
364.481	585.24363
364.802	592.66961
365.122	597.97173
365.443	588.42663
365.763	557.62989
366.083	559.75581
366.404	541.6757
366.724	527.83462
367.044	569.31875
367.364	566.13178
367.685	564.00676
368.005	572.50506
368.325	588.42663
368.645	621.28009
368.965	594.79068
369.284	576.75242
369.604	580.99861
369.924	585.24363
370.244	603.27207
370.564	579.93717
370.883	573.56701
371.203	595.8511
371.522	588.42663
371.842	600.09208
372.161	600.09208
372.481	584.18248
372.8	555.50366
373.119	537.41832
373.439	558.69289
373.758	569.31875
374.077	577.81408
374.396	584.18248
374.715	591.60898
375.034	585.24363
375.353	569.31875
375.672	522.50757
375.991	523.57314
376.31	576.75242
376.629	570.38093
376.948	565.06931
377.266	585.24363
377.585	597.97173
377.904	590.54827
378.222	564.00676
378.541	553.37712
378.859	578.87566
379.178	599.03194
379.496	583.12126
379.814	567.19418
380.133	567.19418
380.451	590.54827
380.769	569.31875
381.087	555.50366
381.405	564.00676
381.723	564.00676
382.041	575.69069
382.359	569.31875
382.677	569.31875
382.995	564.00676
383.313	565.06931
383.631	570.38093
383.949	574.62889
384.266	588.42663
384.584	560.81866
384.901	549.12314
385.219	568.25651
385.537	588.42663
385.854	579.93717
386.171	550.18675
386.489	561.88144
386.806	586.3047
387.123	591.60898
387.441	562.94414
387.758	568.25651
388.075	586.3047
388.392	588.42663
388.709	564.00676
389.026	549.12314
389.343	591.60898
389.66	603.27207
389.977	584.18248
390.294	573.56701
390.61	546.99569
390.927	560.81866
391.244	606.45143
391.56	617.04472
391.877	574.62889
392.193	540.61148
392.51	580.99861
392.826	597.97173
393.143	580.99861
393.459	564.00676
393.775	558.69289
394.092	577.81408
394.408	582.05997
394.724	546.99569
395.04	537.41832
395.356	557.62989
395.672	569.31875
395.988	569.31875
396.304	558.69289
396.62	562.94414
396.936	578.87566
397.252	568.25651
397.567	555.50366
397.883	569.31875
398.199	579.93717
398.514	573.56701
398.83	578.87566
399.146	587.3657
399.461	582.05997
399.777	562.94414
400.092	554.44043
400.407	534.22446
400.723	528.89979
401.038	544.86793
401.353	540.61148
401.668	556.56681
401.983	560.81866
402.298	564.00676
402.613	577.81408
402.928	564.00676
403.243	552.31374
403.558	550.18675
403.873	558.69289
404.188	570.38093
404.503	555.50366
404.817	560.81866
405.132	570.38093
405.447	565.06931
405.761	585.24363
406.076	575.69069
406.39	559.75581
406.705	568.25651
407.019	606.45143
407.334	612.80824
407.648	593.73018
407.962	584.18248
408.276	580.99861
408.591	588.42663
408.905	587.3657
409.219	622.33876
409.533	619.16254
409.847	578.87566
410.161	558.69289
410.475	569.31875
410.789	570.38093
411.102	577.81408
411.416	592.66961
411.73	605.39171
412.044	620.22135
412.357	610.68958
412.671	575.69069
412.984	551.25029
413.298	576.75242
413.611	596.91145
413.925	607.51107
414.238	597.97173
414.552	591.60898
414.865	565.06931
415.178	554.44043
415.491	589.48748
415.804	610.68958
416.118	577.81408
416.431	560.81866
416.744	593.73018
417.057	593.73018
417.37	576.75242
417.683	549.12314
417.995	574.62889
418.308	567.19418
418.621	533.15969
418.934	557.62989
419.246	565.06931
419.559	576.75242
419.872	552.31374
420.184	541.6757
420.497	566.13178
420.809	558.69289
421.121	580.99861
421.434	582.05997
421.746	552.31374
422.058	565.06931
422.371	583.12126
422.683	602.21215
422.995	591.60898
423.307	550.18675
423.619	557.62989
423.931	577.81408
424.243	589.48748
424.555	571.44303
424.867	577.81408
425.179	608.57064
425.491	601.15215
425.802	559.75581
426.114	540.61148
426.426	572.50506
426.737	568.25651
427.049	554.44043
427.361	592.66961
427.672	578.87566
427.984	538.48278
428.295	538.48278
428.606	548.05945
428.918	575.69069
429.229	629.74755
429.54	625.51436
429.851	555.50366
430.163	552.31374
430.474	574.62889
430.785	574.62889
431.096	585.24363
431.407	580.99861
431.718	570.38093
432.029	592.66961
432.339	597.97173
432.65	605.39171
432.961	582.05997
433.272	573.56701
433.582	590.54827
433.893	551.25029
434.204	543.80393
434.514	554.44043
434.825	557.62989
435.135	576.75242
435.446	580.99861
435.756	578.87566
436.066	594.79068
436.377	628.68935
436.687	614.92662
436.997	592.66961
437.307	587.3657
437.617	580.99861
437.927	579.93717
438.237	585.24363
438.547	600.09208
438.857	599.03194
439.167	594.79068
439.477	570.38093
439.787	574.62889
440.097	571.44303
440.407	564.00676
440.716	560.81866
441.026	565.06931
441.336	578.87566
441.645	580.99861
441.955	560.81866
442.264	567.19418
442.574	587.3657
442.883	556.56681
443.192	560.81866
443.502	588.42663
443.811	610.68958
444.12	587.3657
444.429	551.25029
444.739	554.44043
445.048	580.99861
445.357	608.57064
445.666	621.28009
445.975	623.39736
446.284	579.93717
446.593	538.48278
446.901	542.73986
447.21	567.19418
447.519	561.88144
447.828	550.18675
448.136	564.00676
448.445	560.81866
448.754	560.81866
449.062	571.44303
449.371	578.87566
449.679	586.3047
449.988	574.62889
450.296	576.75242
450.605	575.69069
450.913	592.66961
451.221	636.09528
451.529	606.45143
451.838	570.38093
452.146	561.88144
452.454	549.12314
452.762	573.56701
453.07	583.12126
453.378	574.62889
453.686	574.62889
453.994	615.9857
454.302	611.74894
454.609	574.62889
454.917	582.05997
455.225	602.21215
455.533	599.03194
455.84	554.44043
456.148	541.6757
456.455	565.06931
456.763	594.79068
457.07	601.15215
457.378	585.24363
457.685	538.48278
457.993	550.18675
458.3	589.48748
458.607	572.50506
458.915	554.44043
459.222	577.81408
459.529	623.39736
459.836	610.68958
460.143	560.81866
460.45	537.41832
460.757	545.93185
461.064	564.00676
461.371	568.25651
461.678	575.69069
461.985	562.94414
462.292	576.75242
462.598	591.60898
462.905	570.38093
463.212	593.73018
463.518	570.38093
463.825	543.80393
464.131	584.18248
464.438	583.12126
464.744	546.99569
465.051	561.88144
465.357	575.69069
465.664	572.50506
465.97	592.66961
466.276	604.33193
466.582	555.50366
466.889	537.41832
467.195	589.48748
467.501	587.3657
467.807	588.42663
468.113	573.56701
468.419	564.00676
468.725	587.3657
469.031	596.91145
469.337	637.15301
469.642	610.68958
469.948	564.00676
470.254	568.25651
470.56	575.69069
470.865	583.12126
471.171	564.00676
471.477	555.50366
471.782	579.93717
472.088	585.24363
472.393	600.09208
472.698	607.51107
473.004	558.69289
473.309	552.31374
473.614	574.62889
473.92	572.50506
474.225	545.93185
474.53	538.48278
474.835	545.93185
475.14	540.61148
475.445	568.25651
475.75	584.18248
476.055	594.79068
476.36	589.48748
476.665	580.99861
476.97	591.60898
477.275	597.97173
477.58	596.91145
477.885	591.60898
478.189	584.18248
478.494	604.33193
478.799	599.03194
479.103	556.56681
479.408	540.61148
479.712	535.28916
480.017	535.28916
480.321	566.13178
480.625	566.13178
480.93	560.81866
481.234	567.19418
481.538	559.75581
481.843	577.81408
482.147	576.75242
482.451	590.54827
482.755	592.66961
483.059	572.50506
483.363	580.99861
483.667	591.60898
483.971	578.87566
484.275	564.00676
484.579	556.56681
484.883	545.93185
485.187	565.06931
485.49	601.15215
485.794	611.74894
486.098	594.79068
486.401	566.13178
486.705	559.75581
487.009	575.69069
487.312	591.60898
487.616	570.38093
487.919	542.73986
488.222	543.80393
488.526	534.22446
488.829	568.25651
489.132	599.03194
489.436	596.91145
489.739	566.13178
490.042	555.50366
490.345	608.57064
490.648	613.86746
490.951	594.79068
491.254	585.24363
491.557	568.25651
491.86	580.99861
492.163	586.3047
492.466	564.00676
492.769	586.3047
493.072	604.33193
493.375	577.81408
493.677	571.44303
493.98	572.50506
494.283	566.13178
494.585	525.70404
494.888	527.83462
495.19	565.06931
495.493	553.37712
495.795	552.31374
496.098	584.18248
496.4	585.24363
496.702	569.31875
497.005	584.18248
497.307	611.74894
497.609	602.21215
497.911	570.38093
498.213	570.38093
498.515	573.56701
498.818	590.54827
499.12	576.75242
499.422	578.87566
499.723	578.87566
500.025	583.12126
500.327	599.03194
500.629	556.56681
500.931	561.88144
501.233	583.12126
501.534	577.81408
501.836	592.66961
502.138	594.79068
502.439	578.87566
502.741	566.13178
503.042	575.69069
503.344	588.42663
503.645	606.45143
503.947	591.60898
504.248	576.75242
504.55	575.69069
504.851	597.97173
505.152	588.42663
505.453	555.50366
505.755	588.42663
506.056	579.93717
506.357	554.44043
506.658	580.99861
506.959	593.73018
507.26	595.8511
507.561	580.99861
507.862	550.18675
508.163	560.81866
508.464	569.31875
508.764	580.99861
509.065	588.42663
509.366	591.60898
509.667	602.21215
509.967	582.05997
510.268	566.13178
510.569	587.3657
510.869	580.99861
511.17	566.13178
511.47	600.09208
511.771	591.60898
512.071	587.3657
512.371	585.24363
512.672	571.44303
512.972	571.44303
513.272	554.44043
513.573	556.56681
513.873	540.61148
514.173	539.54717
514.473	572.50506
514.773	582.05997
515.073	579.93717
515.373	564.00676
515.673	552.31374
515.973	560.81866
516.273	548.05945
516.573	555.50366
516.873	535.28916
517.172	542.73986
517.472	573.56701
517.772	551.25029
518.072	538.48278
518.371	573.56701
518.671	623.39736
518.97	603.27207
519.27	553.37712
519.569	576.75242
519.869	602.21215
520.168	577.81408
520.468	579.93717
520.767	592.66961
521.066	600.09208
521.366	588.42663
521.665	568.25651
521.964	570.38093
522.263	577.81408
522.562	583.12126
522.861	603.27207
523.161	578.87566
523.46	556.56681
523.759	573.56701
524.057	587.3657
524.356	571.44303
524.655	548.05945
524.954	565.06931
525.253	586.3047
525.552	597.97173
525.85	589.48748
526.149	601.15215
526.448	573.56701
526.746	545.93185
527.045	556.56681
527.344	577.81408
527.642	608.57064
527.941	615.9857
528.239	601.15215
528.537	572.50506
528.836	596.91145
529.134	604.33193
529.432	600.09208
529.731	594.79068
530.029	576.75242
530.327	573.56701
530.625	589.48748
530.923	595.8511
531.221	586.3047
531.52	575.69069
531.818	570.38093
532.116	558.69289
532.413	578.87566
532.711	609.63015
533.009	594.79068
533.307	570.38093
533.605	558.69289
533.903	588.42663
534.2	579.93717
534.498	569.31875
534.796	591.60898
535.093	574.62889
535.391	567.19418
535.689	583.12126
535.986	587.3657
536.284	573.56701
536.581	550.18675
536.878	577.81408
537.176	576.75242
537.473	570.38093
537.77	582.05997
538.068	548.05945
538.365	554.44043
538.662	580.99861
538.959	572.50506
539.256	576.75242
539.554	583.12126
