Data from dark_beginning_ST026791__126__1224.txt Node

Date: Mon Aug 18 22:10:23 AEST 2025
User: mathewyoussef
Spectrometer: ST02679
Trigger mode: 0
Integration Time (sec): 6.653700E-1
Scans to average: 1
Nonlinearity correction enabled: true
Boxcar width: 0
Storing dark spectrum: false
XAxis mode: Wavelengths
Number of Pixels in Spectrum: 1516
>>>>>Begin Spectral Data<<<<<
187.304	603.27207
187.653	588.42663
188.002	578.87566
188.351	604.33193
188.7	603.27207
189.048	602.21215
189.397	620.22135
189.746	590.54827
190.094	566.13178
190.443	559.75581
190.791	557.62989
191.14	552.31374
191.488	548.05945
191.837	572.50506
192.185	577.81408
192.533	561.88144
192.881	552.31374
193.229	572.50506
193.577	604.33193
193.925	595.8511
194.273	589.48748
194.621	582.05997
194.969	586.3047
195.317	591.60898
195.664	585.24363
196.012	593.73018
196.359	573.56701
196.707	584.18248
197.054	583.12126
197.402	559.75581
197.749	573.56701
198.096	586.3047
198.443	579.93717
198.791	580.99861
199.138	582.05997
199.485	575.69069
199.832	561.88144
200.179	559.75581
200.525	594.79068
200.872	595.8511
201.219	567.19418
201.566	584.18248
201.912	592.66961
202.259	567.19418
202.605	560.81866
202.952	576.75242
203.298	589.48748
203.644	594.79068
203.991	575.69069
204.337	558.69289
204.683	575.69069
205.029	592.66961
205.375	567.19418
205.721	574.62889
206.067	602.21215
206.413	603.27207
206.759	597.97173
207.104	567.19418
207.45	577.81408
207.796	597.97173
208.141	569.31875
208.487	560.81866
208.832	583.12126
209.177	586.3047
209.523	596.91145
209.868	601.15215
210.213	579.93717
210.558	569.31875
210.903	557.62989
211.248	560.81866
211.593	572.50506
211.938	587.3657
212.283	601.15215
212.628	576.75242
212.973	567.19418
213.317	557.62989
213.662	545.93185
214.007	567.19418
214.351	571.44303
214.696	588.42663
215.04	591.60898
215.384	578.87566
215.729	585.24363
216.073	597.97173
216.417	597.97173
216.761	588.42663
217.105	586.3047
217.449	586.3047
217.793	572.50506
218.137	558.69289
218.481	565.06931
218.824	609.63015
219.168	600.09208
219.512	556.56681
219.855	560.81866
220.199	550.18675
220.542	558.69289
220.886	582.05997
221.229	579.93717
221.572	580.99861
221.916	596.91145
222.259	565.06931
222.602	541.6757
222.945	573.56701
223.288	588.42663
223.631	559.75581
223.974	550.18675
224.317	564.00676
224.659	557.62989
225.002	554.44043
225.345	553.37712
225.687	559.75581
226.03	572.50506
226.372	564.00676
226.715	575.69069
227.057	568.25651
227.4	555.50366
227.742	592.66961
228.084	594.79068
228.426	570.38093
228.768	558.69289
229.11	560.81866
229.452	577.81408
229.794	599.03194
230.136	592.66961
230.478	596.91145
230.82	585.24363
231.161	540.61148
231.503	580.99861
231.845	629.74755
232.186	641.38322
232.528	606.45143
232.869	551.25029
233.21	567.19418
233.552	572.50506
233.893	601.15215
234.234	623.39736
234.575	612.80824
234.916	600.09208
235.257	595.8511
235.598	594.79068
235.939	583.12126
236.28	576.75242
236.621	575.69069
236.961	597.97173
237.302	614.92662
237.643	599.03194
237.983	566.13178
238.324	548.05945
238.664	580.99861
239.005	599.03194
239.345	584.18248
239.685	604.33193
240.025	596.91145
240.366	578.87566
240.706	590.54827
241.046	603.27207
241.386	621.28009
241.726	608.57064
242.066	568.25651
242.405	549.12314
242.745	577.81408
243.085	604.33193
243.425	599.03194
243.764	576.75242
244.104	601.15215
244.443	614.92662
244.783	566.13178
245.122	556.56681
245.461	578.87566
245.801	583.12126
246.14	553.37712
246.479	566.13178
246.818	573.56701
247.157	565.06931
247.496	579.93717
247.835	574.62889
248.174	562.94414
248.513	553.37712
248.852	571.44303
249.19	595.8511
249.529	587.3657
249.868	607.51107
250.206	607.51107
250.545	569.31875
250.883	566.13178
251.221	560.81866
251.56	545.93185
251.898	559.75581
252.236	571.44303
252.574	569.31875
252.912	574.62889
253.25	558.69289
253.588	555.50366
253.926	593.73018
254.264	579.93717
254.602	571.44303
254.94	577.81408
255.278	574.62889
255.615	566.13178
255.953	550.18675
256.29	579.93717
256.628	565.06931
256.965	536.35378
257.303	557.62989
257.64	576.75242
257.977	606.45143
258.314	590.54827
258.652	574.62889
258.989	586.3047
259.326	564.00676
259.663	592.66961
260	584.18248
260.337	544.86793
260.673	559.75581
261.01	567.19418
261.347	562.94414
261.684	549.12314
262.02	551.25029
262.357	575.69069
262.693	603.27207
263.03	593.73018
263.366	566.13178
263.702	569.31875
264.039	586.3047
264.375	588.42663
264.711	591.60898
265.047	597.97173
265.383	584.18248
265.719	568.25651
266.055	560.81866
266.391	577.81408
266.727	610.68958
267.063	578.87566
267.399	562.94414
267.734	591.60898
268.07	594.79068
268.405	595.8511
268.741	602.21215
269.076	574.62889
269.412	543.80393
269.747	550.18675
270.082	544.86793
270.418	556.56681
270.753	574.62889
271.088	583.12126
271.423	603.27207
271.758	627.63109
272.093	629.74755
272.428	597.97173
272.763	580.99861
273.098	577.81408
273.433	578.87566
273.767	574.62889
274.102	566.13178
274.436	574.62889
274.771	597.97173
275.106	566.13178
275.44	580.99861
275.774	632.92172
276.109	570.38093
276.443	533.15969
276.777	535.28916
277.111	554.44043
277.445	590.54827
277.78	597.97173
278.114	579.93717
278.447	566.13178
278.781	589.48748
279.115	586.3047
279.449	572.50506
279.783	592.66961
280.116	594.79068
280.45	567.19418
280.784	574.62889
281.117	618.10366
281.451	610.68958
281.784	613.86746
282.117	621.28009
282.451	594.79068
282.784	588.42663
283.117	576.75242
283.45	577.81408
283.783	569.31875
284.116	560.81866
284.449	551.25029
284.782	587.3657
285.115	622.33876
285.448	570.38093
285.781	546.99569
286.114	554.44043
286.446	549.12314
286.779	587.3657
287.111	613.86746
287.444	588.42663
287.776	576.75242
288.109	595.8511
288.441	575.69069
288.773	566.13178
289.106	604.33193
289.438	585.24363
289.77	568.25651
290.102	575.69069
290.434	551.25029
290.766	559.75581
291.098	586.3047
291.43	578.87566
291.762	566.13178
292.094	576.75242
292.425	574.62889
292.757	557.62989
293.089	568.25651
293.42	575.69069
293.752	574.62889
294.083	584.18248
294.414	577.81408
294.746	556.56681
295.077	575.69069
295.408	588.42663
295.74	583.12126
296.071	596.91145
296.402	579.93717
296.733	572.50506
297.064	590.54827
297.395	555.50366
297.726	557.62989
298.056	603.27207
298.387	591.60898
298.718	589.48748
299.049	601.15215
299.379	572.50506
299.71	573.56701
300.04	586.3047
300.371	561.88144
300.701	558.69289
301.031	593.73018
301.362	595.8511
301.692	583.12126
302.022	577.81408
302.352	560.81866
302.682	577.81408
303.012	571.44303
303.342	561.88144
303.672	568.25651
304.002	569.31875
304.332	568.25651
304.662	557.62989
304.992	568.25651
305.321	583.12126
305.651	583.12126
305.98	569.31875
306.31	555.50366
306.639	569.31875
306.969	553.37712
307.298	544.86793
307.628	571.44303
307.957	566.13178
308.286	561.88144
308.615	574.62889
308.944	587.3657
309.273	576.75242
309.602	552.31374
309.931	566.13178
310.26	586.3047
310.589	588.42663
310.918	586.3047
311.247	594.79068
311.575	584.18248
311.904	568.25651
312.233	550.18675
312.561	534.22446
312.89	560.81866
313.218	576.75242
313.546	600.09208
313.875	585.24363
314.203	557.62989
314.531	573.56701
314.859	578.87566
315.188	565.06931
315.516	568.25651
315.844	586.3047
316.172	569.31875
316.5	573.56701
316.827	591.60898
317.155	611.74894
317.483	607.51107
317.811	603.27207
318.138	601.15215
318.466	568.25651
318.794	532.09483
319.121	555.50366
319.449	588.42663
319.776	583.12126
320.103	588.42663
320.431	587.3657
320.758	593.73018
321.085	574.62889
321.412	567.19418
321.739	583.12126
322.066	592.66961
322.393	600.09208
322.72	588.42663
323.047	589.48748
323.374	609.63015
323.701	565.06931
324.028	535.28916
324.354	570.38093
324.681	568.25651
325.008	564.00676
325.334	568.25651
325.661	579.93717
325.987	602.21215
326.314	589.48748
326.64	575.69069
326.966	589.48748
327.293	580.99861
327.619	579.93717
327.945	560.81866
328.271	570.38093
328.597	608.57064
328.923	617.04472
329.249	601.15215
329.575	561.88144
329.901	562.94414
330.227	578.87566
330.552	577.81408
330.878	575.69069
331.204	576.75242
331.529	566.13178
331.855	612.80824
332.18	647.72654
332.506	611.74894
332.831	597.97173
333.156	604.33193
333.482	592.66961
333.807	570.38093
334.132	554.44043
334.457	575.69069
334.782	601.15215
335.107	589.48748
335.432	571.44303
335.757	571.44303
336.082	572.50506
336.407	597.97173
336.732	611.74894
337.057	588.42663
337.381	567.19418
337.706	565.06931
338.031	556.56681
338.355	566.13178
338.68	593.73018
339.004	562.94414
339.329	570.38093
339.653	582.05997
339.977	582.05997
340.301	587.3657
340.626	570.38093
340.95	564.00676
341.274	549.12314
341.598	553.37712
341.922	576.75242
342.246	595.8511
342.57	609.63015
342.894	564.00676
343.218	553.37712
343.541	583.12126
343.865	579.93717
344.189	596.91145
344.512	591.60898
344.836	569.31875
345.159	582.05997
345.483	591.60898
345.806	566.13178
346.13	589.48748
346.453	585.24363
346.776	558.69289
347.099	586.3047
347.423	610.68958
347.746	603.27207
348.069	580.99861
348.392	583.12126
348.715	591.60898
349.038	580.99861
349.361	571.44303
349.683	575.69069
350.006	591.60898
350.329	619.16254
350.652	620.22135
350.974	602.21215
351.297	594.79068
351.619	603.27207
351.942	602.21215
352.264	579.93717
352.587	546.99569
352.909	548.05945
353.231	587.3657
353.554	574.62889
353.876	549.12314
354.198	556.56681
354.52	545.93185
354.842	576.75242
355.164	605.39171
355.486	618.10366
355.808	606.45143
356.13	559.75581
356.452	572.50506
356.773	583.12126
357.095	573.56701
357.417	574.62889
357.738	558.69289
358.06	594.79068
358.381	611.74894
358.703	593.73018
359.024	590.54827
359.346	569.31875
359.667	554.44043
359.988	569.31875
360.309	592.66961
360.631	572.50506
360.952	567.19418
361.273	567.19418
361.594	568.25651
361.915	600.09208
362.236	582.05997
362.557	557.62989
362.878	593.73018
363.198	596.91145
363.519	554.44043
363.84	535.28916
364.16	555.50366
364.481	586.3047
364.802	566.13178
365.122	570.38093
365.443	580.99861
365.763	560.81866
366.083	593.73018
366.404	593.73018
366.724	579.93717
367.044	596.91145
367.364	594.79068
367.685	591.60898
368.005	589.48748
368.325	584.18248
368.645	558.69289
368.965	542.73986
369.284	561.88144
369.604	569.31875
369.924	590.54827
370.244	628.68935
370.564	573.56701
370.883	528.89979
371.203	556.56681
371.522	585.24363
371.842	624.4559
372.161	617.04472
372.481	576.75242
372.8	582.05997
373.119	589.48748
373.439	575.69069
373.758	569.31875
374.077	576.75242
374.396	596.91145
374.715	576.75242
375.034	573.56701
375.353	573.56701
375.672	579.93717
375.991	585.24363
376.31	566.13178
376.629	589.48748
376.948	591.60898
377.266	556.56681
377.585	565.06931
377.904	592.66961
378.222	578.87566
378.541	593.73018
378.859	578.87566
379.178	548.05945
379.496	542.73986
379.814	548.05945
380.133	562.94414
380.451	560.81866
380.769	562.94414
381.087	550.18675
381.405	537.41832
381.723	554.44043
382.041	574.62889
382.359	586.3047
382.677	588.42663
382.995	583.12126
383.313	557.62989
383.631	555.50366
383.949	584.18248
384.266	575.69069
384.584	564.00676
384.901	585.24363
385.219	609.63015
385.537	588.42663
385.854	560.81866
386.171	580.99861
386.489	579.93717
386.806	567.19418
387.123	587.3657
387.441	592.66961
387.758	586.3047
388.075	572.50506
388.392	557.62989
388.709	572.50506
389.026	569.31875
389.343	552.31374
389.66	573.56701
389.977	597.97173
390.294	610.68958
390.61	603.27207
390.927	591.60898
391.244	576.75242
391.56	562.94414
391.877	574.62889
392.193	561.88144
392.51	554.44043
392.826	561.88144
393.143	544.86793
393.459	559.75581
393.775	580.99861
394.092	558.69289
394.408	549.12314
394.724	579.93717
395.04	576.75242
395.356	555.50366
395.672	567.19418
395.988	589.48748
396.304	612.80824
396.62	606.45143
396.936	607.51107
397.252	591.60898
397.567	549.12314
397.883	589.48748
398.199	603.27207
398.514	566.13178
398.83	586.3047
399.146	592.66961
399.461	579.93717
399.777	583.12126
400.092	578.87566
400.407	567.19418
400.723	568.25651
401.038	571.44303
401.353	589.48748
401.668	582.05997
401.983	582.05997
402.298	604.33193
402.613	580.99861
402.928	565.06931
403.243	565.06931
403.558	561.88144
403.873	578.87566
404.188	568.25651
404.503	576.75242
404.817	609.63015
405.132	570.38093
405.447	539.54717
405.761	582.05997
406.076	577.81408
406.39	550.18675
406.705	548.05945
407.019	560.81866
407.334	587.3657
407.648	582.05997
407.962	559.75581
408.276	559.75581
408.591	555.50366
408.905	561.88144
409.219	592.66961
409.533	615.9857
409.847	591.60898
410.161	534.22446
410.475	529.96488
410.789	558.69289
411.102	597.97173
411.416	609.63015
411.73	591.60898
412.044	579.93717
412.357	582.05997
412.671	562.94414
412.984	536.35378
413.298	550.18675
413.611	570.38093
413.925	590.54827
414.238	608.57064
414.552	613.86746
414.865	592.66961
415.178	536.35378
415.491	548.05945
415.804	596.91145
416.118	588.42663
416.431	591.60898
416.744	572.50506
417.057	551.25029
417.37	569.31875
417.683	580.99861
417.995	594.79068
418.308	577.81408
418.621	548.05945
418.934	544.86793
419.246	574.62889
419.559	558.69289
419.872	544.86793
420.184	570.38093
420.497	588.42663
420.809	590.54827
421.121	573.56701
421.434	562.94414
421.746	557.62989
422.058	551.25029
422.371	544.86793
422.683	585.24363
422.995	590.54827
423.307	560.81866
423.619	574.62889
423.931	579.93717
424.243	575.69069
424.555	571.44303
424.867	597.97173
425.179	604.33193
425.491	571.44303
425.802	560.81866
426.114	551.25029
426.426	567.19418
426.737	553.37712
427.049	566.13178
427.361	604.33193
427.672	591.60898
427.984	584.18248
428.295	600.09208
428.606	586.3047
428.918	575.69069
429.229	643.49793
429.54	632.92172
429.851	566.13178
430.163	566.13178
430.474	580.99861
430.785	587.3657
431.096	595.8511
431.407	587.3657
431.718	589.48748
432.029	599.03194
432.339	569.31875
432.65	576.75242
432.961	577.81408
433.272	575.69069
433.582	602.21215
433.893	595.8511
434.204	602.21215
434.514	588.42663
434.825	567.19418
435.135	587.3657
435.446	594.79068
435.756	587.3657
436.066	577.81408
436.377	568.25651
436.687	587.3657
436.997	578.87566
437.307	551.25029
437.617	572.50506
437.927	573.56701
438.237	558.69289
438.547	556.56681
438.857	571.44303
439.167	559.75581
439.477	529.96488
439.787	549.12314
440.097	572.50506
440.407	567.19418
440.716	571.44303
441.026	575.69069
441.336	585.24363
441.645	595.8511
441.955	571.44303
442.264	579.93717
442.574	603.27207
442.883	606.45143
443.192	611.74894
443.502	620.22135
443.811	621.28009
444.12	599.03194
444.429	575.69069
444.739	574.62889
445.048	591.60898
445.357	597.97173
445.666	591.60898
445.975	576.75242
446.284	591.60898
446.593	610.68958
446.901	588.42663
447.21	576.75242
447.519	592.66961
447.828	582.05997
448.136	569.31875
448.445	589.48748
448.754	578.87566
449.062	564.00676
449.371	584.18248
449.679	568.25651
449.988	569.31875
450.296	579.93717
450.605	551.25029
450.913	571.44303
451.221	627.63109
451.529	588.42663
451.838	558.69289
452.146	567.19418
452.454	569.31875
452.762	614.92662
453.07	593.73018
453.378	561.88144
453.686	582.05997
453.994	603.27207
454.302	573.56701
454.609	546.99569
454.917	577.81408
455.225	585.24363
455.533	576.75242
455.84	593.73018
456.148	586.3047
456.455	580.99861
456.763	577.81408
457.07	588.42663
457.378	574.62889
457.685	556.56681
457.993	595.8511
458.3	575.69069
458.607	535.28916
458.915	549.12314
459.222	587.3657
459.529	610.68958
459.836	588.42663
460.143	568.25651
460.45	566.13178
460.757	566.13178
461.064	565.06931
461.371	551.25029
461.678	558.69289
461.985	580.99861
462.292	568.25651
462.598	571.44303
462.905	576.75242
463.212	573.56701
463.518	569.31875
463.825	570.38093
464.131	624.4559
464.438	599.03194
464.744	573.56701
465.051	590.54827
465.357	577.81408
465.664	580.99861
465.97	599.03194
466.276	596.91145
466.582	593.73018
466.889	606.45143
467.195	590.54827
467.501	589.48748
467.807	589.48748
468.113	580.99861
468.419	586.3047
468.725	573.56701
469.031	572.50506
469.337	625.51436
469.642	617.04472
469.948	605.39171
470.254	601.15215
470.56	559.75581
470.865	553.37712
471.171	569.31875
471.477	572.50506
471.782	585.24363
472.088	589.48748
472.393	596.91145
472.698	600.09208
473.004	569.31875
473.309	573.56701
473.614	592.66961
473.92	594.79068
474.225	578.87566
474.53	568.25651
474.835	593.73018
475.14	599.03194
475.445	601.15215
475.75	622.33876
476.055	579.93717
476.36	585.24363
476.665	591.60898
476.97	549.12314
477.275	576.75242
477.58	603.27207
477.885	599.03194
478.189	590.54827
478.494	571.44303
478.799	550.18675
479.103	542.73986
479.408	573.56701
479.712	584.18248
480.017	576.75242
480.321	571.44303
480.625	605.39171
480.93	612.80824
481.234	584.18248
481.538	574.62889
481.843	570.38093
482.147	605.39171
482.451	597.97173
482.755	578.87566
483.059	585.24363
483.363	584.18248
483.667	572.50506
483.971	559.75581
484.275	569.31875
484.579	573.56701
484.883	566.13178
485.187	580.99861
485.49	583.12126
485.794	564.00676
486.098	561.88144
486.401	565.06931
486.705	592.66961
487.009	577.81408
487.312	559.75581
487.616	568.25651
487.919	556.56681
488.222	549.12314
488.526	572.50506
488.829	604.33193
489.132	579.93717
489.436	562.94414
489.739	557.62989
490.042	549.12314
490.345	562.94414
490.648	561.88144
490.951	553.37712
491.254	562.94414
491.557	597.97173
491.86	582.05997
492.163	567.19418
492.466	590.54827
492.769	584.18248
493.072	582.05997
493.375	575.69069
493.677	590.54827
493.98	583.12126
494.283	572.50506
494.585	562.94414
494.888	546.99569
495.19	570.38093
495.493	578.87566
495.795	573.56701
496.098	586.3047
496.4	597.97173
496.702	579.93717
497.005	570.38093
497.307	606.45143
497.609	588.42663
497.911	569.31875
498.213	577.81408
498.515	567.19418
498.818	579.93717
499.12	572.50506
499.422	569.31875
499.723	600.09208
500.025	613.86746
500.327	594.79068
500.629	573.56701
500.931	573.56701
501.233	574.62889
501.534	562.94414
501.836	552.31374
502.138	544.86793
502.439	602.21215
502.741	605.39171
503.042	546.99569
503.344	559.75581
503.645	559.75581
503.947	561.88144
504.248	596.91145
504.55	604.33193
504.851	584.18248
505.152	568.25651
505.453	590.54827
505.755	604.33193
506.056	586.3047
506.357	568.25651
506.658	586.3047
506.959	602.21215
507.26	584.18248
507.561	578.87566
507.862	577.81408
508.163	588.42663
508.464	573.56701
508.764	577.81408
509.065	571.44303
509.366	561.88144
509.667	566.13178
509.967	564.00676
510.268	580.99861
510.569	575.69069
510.869	576.75242
511.17	582.05997
511.47	570.38093
511.771	564.00676
512.071	585.24363
512.371	591.60898
512.672	557.62989
512.972	549.12314
513.272	570.38093
513.573	570.38093
513.873	574.62889
514.173	590.54827
514.473	577.81408
514.773	572.50506
515.073	578.87566
515.373	567.19418
515.673	573.56701
515.973	588.42663
516.273	587.3657
516.573	562.94414
516.873	579.93717
517.172	597.97173
517.472	558.69289
517.772	561.88144
518.072	560.81866
518.371	586.3047
518.671	608.57064
518.97	593.73018
519.27	597.97173
519.569	583.12126
519.869	560.81866
520.168	551.25029
520.468	575.69069
520.767	596.91145
521.066	591.60898
521.366	579.93717
521.665	578.87566
521.964	586.3047
522.263	571.44303
522.562	558.69289
522.861	573.56701
523.161	557.62989
523.46	549.12314
523.759	557.62989
524.057	584.18248
524.356	605.39171
524.655	575.69069
524.954	582.05997
525.253	591.60898
525.552	579.93717
525.85	588.42663
526.149	570.38093
526.448	569.31875
526.746	579.93717
527.045	562.94414
527.344	587.3657
527.642	601.15215
527.941	580.99861
528.239	593.73018
528.537	613.86746
528.836	605.39171
529.134	569.31875
529.432	548.05945
529.731	561.88144
530.029	577.81408
530.327	577.81408
530.625	578.87566
530.923	573.56701
531.221	571.44303
531.52	573.56701
531.818	580.99861
532.116	572.50506
532.413	575.69069
532.711	579.93717
533.009	570.38093
533.307	576.75242
533.605	574.62889
533.903	585.24363
534.2	570.38093
534.498	558.69289
534.796	586.3047
535.093	609.63015
535.391	608.57064
535.689	576.75242
535.986	539.54717
536.284	549.12314
536.581	618.10366
536.878	660.40609
537.176	617.04472
537.473	573.56701
537.77	572.50506
538.068	588.42663
538.365	597.97173
538.662	585.24363
538.959	573.56701
539.256	573.56701
539.554	552.31374
