Data from dark_beginning_ST026791__181__1279.txt Node

Date: Mon Aug 18 22:11:37 AEST 2025
User: mathewyoussef
Spectrometer: ST02679
Trigger mode: 0
Integration Time (sec): 6.653700E-1
Scans to average: 1
Nonlinearity correction enabled: true
Boxcar width: 0
Storing dark spectrum: false
XAxis mode: Wavelengths
Number of Pixels in Spectrum: 1516
>>>>>Begin Spectral Data<<<<<
187.304	587.3657
187.653	596.91145
188.002	611.74894
188.351	592.66961
188.7	545.93185
189.048	542.73986
189.397	579.93717
189.746	592.66961
190.094	589.48748
190.443	576.75242
190.791	553.37712
191.14	557.62989
191.488	558.69289
191.837	558.69289
192.185	550.18675
192.533	550.18675
192.881	579.93717
193.229	582.05997
193.577	586.3047
193.925	560.81866
194.273	549.12314
194.621	590.54827
194.969	589.48748
195.317	553.37712
195.664	544.86793
196.012	532.09483
196.359	521.44192
196.707	554.44043
197.054	586.3047
197.402	577.81408
197.749	548.05945
198.096	571.44303
198.443	583.12126
198.791	570.38093
199.138	573.56701
199.485	562.94414
199.832	562.94414
200.179	564.00676
200.525	548.05945
200.872	571.44303
201.219	588.42663
201.566	585.24363
201.912	591.60898
202.259	570.38093
202.605	546.99569
202.952	576.75242
203.298	565.06931
203.644	562.94414
203.991	577.81408
204.337	568.25651
204.683	577.81408
205.029	566.13178
205.375	556.56681
205.721	591.60898
206.067	607.51107
206.413	573.56701
206.759	585.24363
207.104	571.44303
207.45	554.44043
207.796	599.03194
208.141	596.91145
208.487	573.56701
208.832	587.3657
209.177	594.79068
209.523	591.60898
209.868	571.44303
210.213	579.93717
210.558	568.25651
210.903	553.37712
211.248	555.50366
211.593	560.81866
211.938	580.99861
212.283	576.75242
212.628	575.69069
212.973	574.62889
213.317	579.93717
213.662	592.66961
214.007	585.24363
214.351	589.48748
214.696	569.31875
215.04	559.75581
215.384	629.74755
215.729	600.09208
216.073	523.57314
216.417	554.44043
216.761	556.56681
217.105	556.56681
217.449	590.54827
217.793	604.33193
218.137	578.87566
218.481	546.99569
218.824	553.37712
219.168	580.99861
219.512	569.31875
219.855	557.62989
220.199	589.48748
220.542	604.33193
220.886	615.9857
221.229	590.54827
221.572	564.00676
221.916	574.62889
222.259	586.3047
222.602	564.00676
222.945	557.62989
223.288	591.60898
223.631	587.3657
223.974	562.94414
224.317	544.86793
224.659	560.81866
225.002	599.03194
225.345	592.66961
225.687	587.3657
226.03	584.18248
226.372	579.93717
226.715	597.97173
227.057	583.12126
227.4	589.48748
227.742	617.04472
228.084	579.93717
228.426	553.37712
228.768	564.00676
229.11	546.99569
229.452	539.54717
229.794	567.19418
230.136	562.94414
230.478	549.12314
230.82	556.56681
231.161	556.56681
231.503	580.99861
231.845	594.79068
232.186	619.16254
232.528	630.80567
232.869	584.18248
233.21	572.50506
233.552	582.05997
233.893	582.05997
234.234	561.88144
234.575	559.75581
234.916	583.12126
235.257	575.69069
235.598	574.62889
235.939	592.66961
236.28	574.62889
236.621	561.88144
236.961	596.91145
237.302	601.15215
237.643	567.19418
237.983	556.56681
238.324	558.69289
238.664	577.81408
239.005	585.24363
239.345	567.19418
239.685	595.8511
240.025	612.80824
240.366	585.24363
240.706	575.69069
241.046	576.75242
241.386	583.12126
241.726	594.79068
242.066	586.3047
242.405	572.50506
242.745	569.31875
243.085	577.81408
243.425	603.27207
243.764	602.21215
244.104	614.92662
244.443	621.28009
244.783	573.56701
245.122	575.69069
245.461	589.48748
245.801	587.3657
246.14	577.81408
246.479	565.06931
246.818	591.60898
247.157	610.68958
247.496	602.21215
247.835	565.06931
248.174	538.48278
248.513	570.38093
248.852	635.0375
249.19	617.04472
249.529	569.31875
249.868	587.3657
250.206	571.44303
250.545	548.05945
250.883	560.81866
251.221	568.25651
251.56	557.62989
251.898	568.25651
252.236	596.91145
252.574	606.45143
252.912	596.91145
253.25	562.94414
253.588	557.62989
253.926	558.69289
254.264	565.06931
254.602	587.3657
254.94	591.60898
255.278	594.79068
255.615	574.62889
255.953	567.19418
256.29	591.60898
256.628	549.12314
256.965	512.91382
257.303	557.62989
257.64	564.00676
257.977	561.88144
258.314	597.97173
258.652	597.97173
258.989	595.8511
259.326	584.18248
259.663	550.18675
260	546.99569
260.337	558.69289
260.673	590.54827
261.01	591.60898
261.347	569.31875
261.684	540.61148
262.02	534.22446
262.357	577.81408
262.693	561.88144
263.03	564.00676
263.366	574.62889
263.702	542.73986
264.039	553.37712
264.375	550.18675
264.711	553.37712
265.047	574.62889
265.383	591.60898
265.719	582.05997
266.055	574.62889
266.391	615.9857
266.727	586.3047
267.063	553.37712
267.399	584.18248
267.734	593.73018
268.07	586.3047
268.405	578.87566
268.741	574.62889
269.076	568.25651
269.412	558.69289
269.747	553.37712
270.082	576.75242
270.418	594.79068
270.753	593.73018
271.088	601.15215
271.423	582.05997
271.758	568.25651
272.093	566.13178
272.428	588.42663
272.763	580.99861
273.098	562.94414
273.433	571.44303
273.767	561.88144
274.102	564.00676
274.436	578.87566
274.771	587.3657
275.106	565.06931
275.44	562.94414
275.774	575.69069
276.109	579.93717
276.443	585.24363
276.777	566.13178
277.111	560.81866
277.445	560.81866
277.78	584.18248
278.114	597.97173
278.447	574.62889
278.781	571.44303
279.115	569.31875
279.449	585.24363
279.783	594.79068
280.116	559.75581
280.45	555.50366
280.784	587.3657
281.117	584.18248
281.451	588.42663
281.784	649.84046
282.117	645.61237
282.451	591.60898
282.784	578.87566
283.117	584.18248
283.45	584.18248
283.783	575.69069
284.116	580.99861
284.449	577.81408
284.782	596.91145
285.115	594.79068
285.448	556.56681
285.781	574.62889
286.114	602.21215
286.446	592.66961
286.779	583.12126
287.111	569.31875
287.444	551.25029
287.776	560.81866
288.109	549.12314
288.441	522.50757
288.773	554.44043
289.106	599.03194
289.438	572.50506
289.77	542.73986
290.102	540.61148
290.434	552.31374
290.766	590.54827
291.098	590.54827
291.43	596.91145
291.762	576.75242
292.094	538.48278
292.425	582.05997
292.757	602.21215
293.089	558.69289
293.42	538.48278
293.752	558.69289
294.083	575.69069
294.414	570.38093
294.746	587.3657
295.077	580.99861
295.408	567.19418
295.74	572.50506
296.071	554.44043
296.402	551.25029
296.733	555.50366
297.064	572.50506
297.395	556.56681
297.726	551.25029
298.056	560.81866
298.387	569.31875
298.718	596.91145
299.049	589.48748
299.379	574.62889
299.71	576.75242
300.04	586.3047
300.371	577.81408
300.701	557.62989
301.031	558.69289
301.362	566.13178
301.692	595.8511
302.022	591.60898
302.352	560.81866
302.682	561.88144
303.012	558.69289
303.342	559.75581
303.672	589.48748
304.002	596.91145
304.332	554.44043
304.662	568.25651
304.992	585.24363
305.321	577.81408
305.651	593.73018
305.98	597.97173
306.31	589.48748
306.639	570.38093
306.969	565.06931
307.298	574.62889
307.628	583.12126
307.957	585.24363
308.286	583.12126
308.615	574.62889
308.944	596.91145
309.273	589.48748
309.602	554.44043
309.931	569.31875
310.26	576.75242
310.589	583.12126
310.918	564.00676
311.247	570.38093
311.575	574.62889
311.904	560.81866
312.233	600.09208
312.561	577.81408
312.89	545.93185
313.218	588.42663
313.546	606.45143
313.875	587.3657
314.203	561.88144
314.531	561.88144
314.859	570.38093
315.188	562.94414
315.516	566.13178
315.844	556.56681
316.172	568.25651
316.5	562.94414
316.827	571.44303
317.155	594.79068
317.483	573.56701
317.811	574.62889
318.138	588.42663
318.466	588.42663
318.794	584.18248
319.121	576.75242
319.449	569.31875
319.776	573.56701
320.103	550.18675
320.431	571.44303
320.758	570.38093
321.085	599.03194
321.412	610.68958
321.739	552.31374
322.066	562.94414
322.393	568.25651
322.72	559.75581
323.047	575.69069
323.374	619.16254
323.701	601.15215
324.028	561.88144
324.354	561.88144
324.681	580.99861
325.008	592.66961
325.334	577.81408
325.661	583.12126
325.987	593.73018
326.314	571.44303
326.64	586.3047
326.966	628.68935
327.293	593.73018
327.619	532.09483
327.945	543.80393
328.271	608.57064
328.597	595.8511
328.923	557.62989
329.249	567.19418
329.575	585.24363
329.901	576.75242
330.227	570.38093
330.552	585.24363
330.878	579.93717
331.204	586.3047
331.529	612.80824
331.855	602.21215
332.18	562.94414
332.506	570.38093
332.831	564.00676
333.156	582.05997
333.482	614.92662
333.807	599.03194
334.132	569.31875
334.457	559.75581
334.782	567.19418
335.107	570.38093
335.432	572.50506
335.757	566.13178
336.082	552.31374
336.407	565.06931
336.732	574.62889
337.057	558.69289
337.381	577.81408
337.706	587.3657
338.031	603.27207
338.355	593.73018
338.68	553.37712
339.004	555.50366
339.329	591.60898
339.653	571.44303
339.977	551.25029
340.301	567.19418
340.626	569.31875
340.95	574.62889
341.274	597.97173
341.598	626.57276
341.922	617.04472
342.246	571.44303
342.57	571.44303
342.894	599.03194
343.218	587.3657
343.541	578.87566
343.865	578.87566
344.189	589.48748
344.512	586.3047
344.836	593.73018
345.159	577.81408
345.483	578.87566
345.806	571.44303
346.13	562.94414
346.453	577.81408
346.776	561.88144
347.099	585.24363
347.423	586.3047
347.746	551.25029
348.069	570.38093
348.392	585.24363
348.715	567.19418
349.038	579.93717
349.361	566.13178
349.683	553.37712
350.006	578.87566
350.329	568.25651
350.652	577.81408
350.974	579.93717
351.297	568.25651
351.619	577.81408
351.942	573.56701
352.264	579.93717
352.587	596.91145
352.909	573.56701
353.231	544.86793
353.554	573.56701
353.876	585.24363
354.198	600.09208
354.52	608.57064
354.842	571.44303
355.164	604.33193
355.486	638.21066
355.808	606.45143
356.13	575.69069
356.452	617.04472
356.773	617.04472
357.095	542.73986
357.417	558.69289
357.738	557.62989
358.06	557.62989
358.381	562.94414
358.703	544.86793
359.024	572.50506
359.346	559.75581
359.667	550.18675
359.988	571.44303
360.309	568.25651
360.631	584.18248
360.952	596.91145
361.273	572.50506
361.594	579.93717
361.915	568.25651
362.236	538.48278
362.557	537.41832
362.878	539.54717
363.198	558.69289
363.519	580.99861
363.84	594.79068
364.16	587.3657
364.481	588.42663
364.802	576.75242
365.122	544.86793
365.443	560.81866
365.763	593.73018
366.083	601.15215
366.404	582.05997
366.724	573.56701
367.044	595.8511
367.364	575.69069
367.685	558.69289
368.005	585.24363
368.325	569.31875
368.645	566.13178
368.965	592.66961
369.284	573.56701
369.604	554.44043
369.924	570.38093
370.244	580.99861
370.564	585.24363
370.883	554.44043
371.203	561.88144
371.522	601.15215
371.842	613.86746
372.161	604.33193
372.481	592.66961
372.8	597.97173
373.119	585.24363
373.439	577.81408
373.758	572.50506
374.077	574.62889
374.396	585.24363
374.715	592.66961
375.034	560.81866
375.353	561.88144
375.672	586.3047
375.991	565.06931
376.31	569.31875
376.629	585.24363
376.948	565.06931
377.266	562.94414
377.585	583.12126
377.904	601.15215
378.222	562.94414
378.541	540.61148
378.859	551.25029
379.178	533.15969
379.496	556.56681
379.814	573.56701
380.133	564.00676
380.451	577.81408
380.769	580.99861
381.087	584.18248
381.405	597.97173
381.723	586.3047
382.041	567.19418
382.359	558.69289
382.677	567.19418
382.995	583.12126
383.313	572.50506
383.631	560.81866
383.949	561.88144
384.266	550.18675
384.584	553.37712
384.901	564.00676
385.219	546.99569
385.537	551.25029
385.854	572.50506
386.171	589.48748
386.489	571.44303
386.806	575.69069
387.123	611.74894
387.441	578.87566
387.758	593.73018
388.075	600.09208
388.392	570.38093
388.709	562.94414
389.026	556.56681
389.343	566.13178
389.66	579.93717
389.977	578.87566
390.294	566.13178
390.61	575.69069
390.927	610.68958
391.244	592.66961
391.56	554.44043
391.877	549.12314
392.193	539.54717
392.51	549.12314
392.826	556.56681
393.143	546.99569
393.459	546.99569
393.775	566.13178
394.092	592.66961
394.408	591.60898
394.724	567.19418
395.04	555.50366
395.356	565.06931
395.672	562.94414
395.988	554.44043
396.304	569.31875
396.62	562.94414
396.936	558.69289
397.252	568.25651
397.567	576.75242
397.883	593.73018
398.199	580.99861
398.514	559.75581
398.83	549.12314
399.146	583.12126
399.461	608.57064
399.777	590.54827
400.092	567.19418
400.407	538.48278
400.723	541.6757
401.038	559.75581
401.353	564.00676
401.668	550.18675
401.983	536.35378
402.298	541.6757
402.613	571.44303
402.928	576.75242
403.243	561.88144
403.558	573.56701
403.873	584.18248
404.188	580.99861
404.503	589.48748
404.817	592.66961
405.132	551.25029
405.447	521.44192
405.761	573.56701
406.076	615.9857
406.39	590.54827
406.705	573.56701
407.019	564.00676
407.334	560.81866
407.648	588.42663
407.962	580.99861
408.276	554.44043
408.591	557.62989
408.905	552.31374
409.219	550.18675
409.533	567.19418
409.847	594.79068
410.161	589.48748
410.475	564.00676
410.789	549.12314
411.102	572.50506
411.416	633.97964
411.73	625.51436
412.044	591.60898
412.357	586.3047
412.671	569.31875
412.984	557.62989
413.298	580.99861
413.611	596.91145
413.925	582.05997
414.238	574.62889
414.552	596.91145
414.865	575.69069
415.178	574.62889
415.491	599.03194
415.804	594.79068
416.118	579.93717
416.431	577.81408
416.744	590.54827
417.057	579.93717
417.37	575.69069
417.683	574.62889
417.995	580.99861
418.308	570.38093
418.621	549.12314
418.934	560.81866
419.246	585.24363
419.559	575.69069
419.872	560.81866
420.184	580.99861
420.497	578.87566
420.809	577.81408
421.121	592.66961
421.434	567.19418
421.746	561.88144
422.058	553.37712
422.371	549.12314
422.683	567.19418
422.995	590.54827
423.307	591.60898
423.619	580.99861
423.931	560.81866
424.243	548.05945
424.555	578.87566
424.867	570.38093
425.179	578.87566
425.491	587.3657
425.802	571.44303
426.114	586.3047
426.426	588.42663
426.737	550.18675
427.049	552.31374
427.361	602.21215
427.672	589.48748
427.984	558.69289
428.295	591.60898
428.606	578.87566
428.918	567.19418
429.229	625.51436
429.54	632.92172
429.851	586.3047
430.163	574.62889
430.474	607.51107
430.785	589.48748
431.096	556.56681
431.407	583.12126
431.718	583.12126
432.029	595.8511
432.339	586.3047
432.65	556.56681
432.961	570.38093
433.272	558.69289
433.582	572.50506
433.893	583.12126
434.204	577.81408
434.514	597.97173
434.825	578.87566
435.135	555.50366
435.446	584.18248
435.756	595.8511
436.066	577.81408
436.377	587.3657
436.687	557.62989
436.997	538.48278
437.307	554.44043
437.617	535.28916
437.927	539.54717
438.237	558.69289
438.547	559.75581
438.857	567.19418
439.167	571.44303
439.477	575.69069
439.787	597.97173
440.097	601.15215
440.407	588.42663
440.716	566.13178
441.026	570.38093
441.336	594.79068
441.645	604.33193
441.955	584.18248
442.264	578.87566
442.574	584.18248
442.883	609.63015
443.192	631.86373
443.502	601.15215
443.811	619.16254
444.12	618.10366
444.429	560.81866
444.739	544.86793
445.048	580.99861
445.357	588.42663
445.666	589.48748
445.975	618.10366
446.284	584.18248
446.593	562.94414
446.901	562.94414
447.21	568.25651
447.519	589.48748
447.828	603.27207
448.136	588.42663
448.445	579.93717
448.754	603.27207
449.062	588.42663
449.371	572.50506
449.679	554.44043
449.988	551.25029
450.296	569.31875
450.605	567.19418
450.913	573.56701
451.221	620.22135
451.529	607.51107
451.838	583.12126
452.146	584.18248
452.454	586.3047
452.762	612.80824
453.07	592.66961
453.378	558.69289
453.686	557.62989
453.994	582.05997
454.302	583.12126
454.609	572.50506
454.917	576.75242
455.225	571.44303
455.533	558.69289
455.84	560.81866
456.148	557.62989
456.455	565.06931
456.763	587.3657
457.07	574.62889
457.378	578.87566
457.685	602.21215
457.993	571.44303
458.3	550.18675
458.607	573.56701
458.915	579.93717
459.222	564.00676
459.529	572.50506
459.836	590.54827
460.143	597.97173
460.45	590.54827
460.757	551.25029
461.064	543.80393
461.371	574.62889
461.678	570.38093
461.985	549.12314
462.292	565.06931
462.598	553.37712
462.905	541.6757
463.212	559.75581
463.518	552.31374
463.825	552.31374
464.131	603.27207
464.438	631.86373
464.744	593.73018
465.051	551.25029
465.357	562.94414
465.664	572.50506
465.97	569.31875
466.276	564.00676
466.582	578.87566
466.889	599.03194
467.195	593.73018
467.501	553.37712
467.807	566.13178
468.113	576.75242
468.419	535.28916
468.725	561.88144
469.031	575.69069
469.337	611.74894
469.642	618.10366
469.948	560.81866
470.254	583.12126
470.56	596.91145
470.865	572.50506
471.171	574.62889
471.477	570.38093
471.782	556.56681
472.088	548.05945
472.393	596.91145
472.698	568.25651
473.004	519.31038
473.309	557.62989
473.614	557.62989
473.92	543.80393
474.225	535.28916
474.53	539.54717
474.835	542.73986
475.14	542.73986
475.445	584.18248
475.75	592.66961
476.055	589.48748
476.36	583.12126
476.665	542.73986
476.97	571.44303
477.275	603.27207
477.58	589.48748
477.885	601.15215
478.189	583.12126
478.494	575.69069
478.799	569.31875
479.103	544.86793
479.408	541.6757
479.712	555.50366
480.017	567.19418
480.321	534.22446
480.625	506.51435
480.93	538.48278
481.234	562.94414
481.538	541.6757
481.843	556.56681
482.147	586.3047
482.451	545.93185
482.755	542.73986
483.059	573.56701
483.363	573.56701
483.667	577.81408
483.971	572.50506
484.275	595.8511
484.579	586.3047
484.883	556.56681
485.187	565.06931
485.49	570.38093
485.794	593.73018
486.098	583.12126
486.401	534.22446
486.705	554.44043
487.009	572.50506
487.312	548.05945
487.616	551.25029
487.919	556.56681
488.222	544.86793
488.526	541.6757
488.829	564.00676
489.132	601.15215
489.436	558.69289
489.739	532.09483
490.042	557.62989
490.345	591.60898
490.648	589.48748
490.951	549.12314
491.254	585.24363
491.557	601.15215
491.86	559.75581
492.163	576.75242
492.466	587.3657
492.769	576.75242
493.072	588.42663
493.375	587.3657
493.677	580.99861
493.98	591.60898
494.283	584.18248
494.585	577.81408
494.888	600.09208
495.19	580.99861
495.493	565.06931
495.795	569.31875
496.098	582.05997
496.4	595.8511
496.702	603.27207
497.005	597.97173
497.307	606.45143
497.609	584.18248
497.911	559.75581
498.213	588.42663
498.515	584.18248
498.818	566.13178
499.12	578.87566
499.422	587.3657
499.723	589.48748
500.025	618.10366
500.327	576.75242
500.629	553.37712
500.931	579.93717
501.233	575.69069
501.534	570.38093
501.836	555.50366
502.138	589.48748
502.439	597.97173
502.741	570.38093
503.042	573.56701
503.344	559.75581
503.645	568.25651
503.947	569.31875
504.248	577.81408
504.55	580.99861
504.851	583.12126
505.152	577.81408
505.453	554.44043
505.755	584.18248
506.056	593.73018
506.357	562.94414
506.658	559.75581
506.959	566.13178
507.26	546.99569
507.561	574.62889
507.862	578.87566
508.163	569.31875
508.464	578.87566
508.764	561.88144
509.065	542.73986
509.366	565.06931
509.667	578.87566
509.967	561.88144
510.268	572.50506
510.569	585.24363
510.869	600.09208
511.17	594.79068
511.47	567.19418
511.771	556.56681
512.071	565.06931
512.371	550.18675
512.672	559.75581
512.972	569.31875
513.272	555.50366
513.573	569.31875
513.873	558.69289
514.173	561.88144
514.473	575.69069
514.773	587.3657
515.073	582.05997
515.373	543.80393
515.673	559.75581
515.973	588.42663
516.273	579.93717
516.573	592.66961
516.873	583.12126
517.172	555.50366
517.472	573.56701
517.772	582.05997
518.072	590.54827
518.371	579.93717
518.671	571.44303
518.97	578.87566
519.27	576.75242
519.569	580.99861
519.869	575.69069
520.168	567.19418
520.468	578.87566
520.767	594.79068
521.066	576.75242
521.366	559.75581
521.665	540.61148
521.964	561.88144
522.263	566.13178
522.562	556.56681
522.861	572.50506
523.161	576.75242
523.46	570.38093
523.759	561.88144
524.057	566.13178
524.356	551.25029
524.655	539.54717
524.954	550.18675
525.253	551.25029
525.552	575.69069
525.85	579.93717
526.149	577.81408
526.448	561.88144
526.746	538.48278
527.045	555.50366
527.344	609.63015
527.642	646.66949
527.941	620.22135
528.239	594.79068
528.537	589.48748
528.836	597.97173
529.134	587.3657
529.432	594.79068
529.731	592.66961
530.029	574.62889
530.327	578.87566
530.625	560.81866
530.923	540.61148
531.221	554.44043
531.52	575.69069
531.818	596.91145
532.116	580.99861
532.413	562.94414
532.711	578.87566
533.009	578.87566
533.307	560.81866
533.605	541.6757
533.903	560.81866
534.2	575.69069
534.498	552.31374
534.796	543.80393
535.093	574.62889
535.391	582.05997
535.689	588.42663
535.986	608.57064
536.284	590.54827
536.581	555.50366
536.878	564.00676
537.176	571.44303
537.473	558.69289
537.77	576.75242
538.068	582.05997
538.365	556.56681
538.662	573.56701
538.959	591.60898
539.256	562.94414
539.554	562.94414
