Data from dark_beginning_ST026791__144__1242.txt Node

Date: Mon Aug 18 22:10:47 AEST 2025
User: mathewyoussef
Spectrometer: ST02679
Trigger mode: 0
Integration Time (sec): 6.653700E-1
Scans to average: 1
Nonlinearity correction enabled: true
Boxcar width: 0
Storing dark spectrum: false
XAxis mode: Wavelengths
Number of Pixels in Spectrum: 1516
>>>>>Begin Spectral Data<<<<<
187.304	561.88144
187.653	545.93185
188.002	560.81866
188.351	574.62889
188.7	568.25651
189.048	603.27207
189.397	627.63109
189.746	603.27207
190.094	591.60898
190.443	578.87566
190.791	570.38093
191.14	557.62989
191.488	540.61148
191.837	513.98012
192.185	506.51435
192.533	554.44043
192.881	572.50506
193.229	571.44303
193.577	595.8511
193.925	580.99861
194.273	569.31875
194.621	579.93717
194.969	572.50506
195.317	572.50506
195.664	594.79068
196.012	609.63015
196.359	606.45143
196.707	606.45143
197.054	573.56701
197.402	534.22446
197.749	537.41832
198.096	560.81866
198.443	564.00676
198.791	580.99861
199.138	604.33193
199.485	571.44303
199.832	586.3047
200.179	608.57064
200.525	566.13178
200.872	575.69069
201.219	559.75581
201.566	559.75581
201.912	575.69069
202.259	575.69069
202.605	570.38093
202.952	564.00676
203.298	579.93717
203.644	567.19418
203.991	564.00676
204.337	537.41832
204.683	535.28916
205.029	550.18675
205.375	562.94414
205.721	606.45143
206.067	593.73018
206.413	572.50506
206.759	565.06931
207.104	555.50366
207.45	577.81408
207.796	585.24363
208.141	557.62989
208.487	567.19418
208.832	568.25651
209.177	560.81866
209.523	587.3657
209.868	571.44303
210.213	552.31374
210.558	571.44303
210.903	590.54827
211.248	576.75242
211.593	569.31875
211.938	576.75242
212.283	570.38093
212.628	572.50506
212.973	565.06931
213.317	552.31374
213.662	568.25651
214.007	592.66961
214.351	594.79068
214.696	565.06931
215.04	532.09483
215.384	544.86793
215.729	575.69069
216.073	586.3047
216.417	572.50506
216.761	560.81866
217.105	559.75581
217.449	558.69289
217.793	579.93717
218.137	585.24363
218.481	586.3047
218.824	565.06931
219.168	545.93185
219.512	549.12314
219.855	542.73986
220.199	562.94414
220.542	576.75242
220.886	569.31875
221.229	571.44303
221.572	571.44303
221.916	562.94414
222.259	557.62989
222.602	561.88144
222.945	562.94414
223.288	562.94414
223.631	555.50366
223.974	540.61148
224.317	560.81866
224.659	606.45143
225.002	590.54827
225.345	555.50366
225.687	589.48748
226.03	589.48748
226.372	577.81408
226.715	580.99861
227.057	568.25651
227.4	590.54827
227.742	566.13178
228.084	519.31038
228.426	531.0299
228.768	537.41832
229.11	540.61148
229.452	543.80393
229.794	527.83462
230.136	528.89979
230.478	546.99569
230.82	561.88144
231.161	574.62889
231.503	578.87566
231.845	573.56701
232.186	594.79068
232.528	574.62889
232.869	549.12314
233.21	570.38093
233.552	560.81866
233.893	543.80393
234.234	565.06931
234.575	574.62889
234.916	550.18675
235.257	542.73986
235.598	565.06931
235.939	579.93717
236.28	564.00676
236.621	567.19418
236.961	595.8511
237.302	586.3047
237.643	555.50366
237.983	567.19418
238.324	570.38093
238.664	582.05997
239.005	576.75242
239.345	567.19418
239.685	572.50506
240.025	557.62989
240.366	561.88144
240.706	571.44303
241.046	572.50506
241.386	560.81866
241.726	565.06931
242.066	553.37712
242.405	552.31374
242.745	588.42663
243.085	603.27207
243.425	587.3657
243.764	586.3047
244.104	573.56701
244.443	593.73018
244.783	609.63015
245.122	568.25651
245.461	540.61148
245.801	576.75242
246.14	589.48748
246.479	541.6757
246.818	513.98012
247.157	544.86793
247.496	594.79068
247.835	590.54827
248.174	554.44043
248.513	539.54717
248.852	602.21215
249.19	617.04472
249.529	573.56701
249.868	568.25651
250.206	583.12126
250.545	570.38093
250.883	545.93185
251.221	561.88144
251.56	566.13178
251.898	577.81408
252.236	582.05997
252.574	566.13178
252.912	568.25651
253.25	548.05945
253.588	576.75242
253.926	604.33193
254.264	576.75242
254.602	578.87566
254.94	588.42663
255.278	584.18248
255.615	564.00676
255.953	549.12314
256.29	570.38093
256.628	574.62889
256.965	551.25029
257.303	561.88144
257.64	586.3047
257.977	603.27207
258.314	568.25651
258.652	565.06931
258.989	597.97173
259.326	583.12126
259.663	592.66961
260	595.8511
260.337	567.19418
260.673	556.56681
261.01	583.12126
261.347	587.3657
261.684	557.62989
262.02	555.50366
262.357	571.44303
262.693	576.75242
263.03	567.19418
263.366	569.31875
263.702	586.3047
264.039	574.62889
264.375	565.06931
264.711	560.81866
265.047	548.05945
265.383	565.06931
265.719	577.81408
266.055	585.24363
266.391	624.4559
266.727	599.03194
267.063	573.56701
267.399	574.62889
267.734	578.87566
268.07	594.79068
268.405	584.18248
268.741	589.48748
269.076	582.05997
269.412	569.31875
269.747	583.12126
270.082	582.05997
270.418	556.56681
270.753	560.81866
271.088	559.75581
271.423	554.44043
271.758	575.69069
272.093	579.93717
272.428	568.25651
272.763	582.05997
273.098	586.3047
273.433	572.50506
273.767	578.87566
274.102	592.66961
274.436	573.56701
274.771	564.00676
275.106	596.91145
275.44	599.03194
275.774	584.18248
276.109	562.94414
276.443	578.87566
276.777	587.3657
277.111	570.38093
277.445	580.99861
277.78	578.87566
278.114	570.38093
278.447	567.19418
278.781	562.94414
279.115	562.94414
279.449	566.13178
279.783	588.42663
280.116	592.66961
280.45	579.93717
280.784	582.05997
281.117	593.73018
281.451	605.39171
281.784	639.26825
282.117	612.80824
282.451	568.25651
282.784	575.69069
283.117	558.69289
283.45	556.56681
283.783	568.25651
284.116	573.56701
284.449	584.18248
284.782	607.51107
285.115	611.74894
285.448	580.99861
285.781	555.50366
286.114	541.6757
286.446	551.25029
286.779	602.21215
287.111	617.04472
287.444	577.81408
287.776	585.24363
288.109	613.86746
288.441	585.24363
288.773	576.75242
289.106	600.09208
289.438	568.25651
289.77	556.56681
290.102	582.05997
290.434	554.44043
290.766	566.13178
291.098	588.42663
291.43	572.50506
291.762	569.31875
292.094	583.12126
292.425	580.99861
292.757	562.94414
293.089	570.38093
293.42	561.88144
293.752	549.12314
294.083	573.56701
294.414	599.03194
294.746	604.33193
295.077	586.3047
295.408	580.99861
295.74	600.09208
296.071	589.48748
296.402	558.69289
296.733	575.69069
297.064	600.09208
297.395	585.24363
297.726	574.62889
298.056	603.27207
298.387	607.51107
298.718	597.97173
299.049	602.21215
299.379	539.54717
299.71	536.35378
300.04	596.91145
300.371	603.27207
300.701	578.87566
301.031	590.54827
301.362	579.93717
301.692	576.75242
302.022	586.3047
302.352	572.50506
302.682	588.42663
303.012	574.62889
303.342	567.19418
303.672	565.06931
304.002	560.81866
304.332	559.75581
304.662	574.62889
304.992	582.05997
305.321	586.3047
305.651	589.48748
305.98	565.06931
306.31	555.50366
306.639	570.38093
306.969	584.18248
307.298	599.03194
307.628	578.87566
307.957	552.31374
308.286	589.48748
308.615	588.42663
308.944	602.21215
309.273	628.68935
309.602	604.33193
309.931	588.42663
310.26	565.06931
310.589	565.06931
310.918	573.56701
311.247	595.8511
311.575	574.62889
311.904	546.99569
312.233	573.56701
312.561	564.00676
312.89	565.06931
313.218	593.73018
313.546	591.60898
313.875	570.38093
314.203	570.38093
314.531	586.3047
314.859	589.48748
315.188	584.18248
315.516	595.8511
315.844	601.15215
316.172	603.27207
316.5	577.81408
316.827	557.62989
317.155	567.19418
317.483	572.50506
317.811	570.38093
318.138	541.6757
318.466	539.54717
318.794	546.99569
319.121	545.93185
319.449	578.87566
319.776	585.24363
320.103	573.56701
320.431	585.24363
320.758	570.38093
321.085	577.81408
321.412	603.27207
321.739	587.3657
322.066	571.44303
322.393	569.31875
322.72	569.31875
323.047	591.60898
323.374	608.57064
323.701	572.50506
324.028	586.3047
324.354	597.97173
324.681	557.62989
325.008	570.38093
325.334	573.56701
325.661	549.12314
325.987	552.31374
326.314	578.87566
326.64	585.24363
326.966	582.05997
327.293	578.87566
327.619	590.54827
327.945	587.3657
328.271	583.12126
328.597	557.62989
328.923	527.83462
329.249	554.44043
329.575	557.62989
329.901	543.80393
330.227	545.93185
330.552	570.38093
330.878	588.42663
331.204	576.75242
331.529	557.62989
331.855	572.50506
332.18	603.27207
332.506	586.3047
332.831	570.38093
333.156	610.68958
333.482	610.68958
333.807	570.38093
334.132	558.69289
334.457	592.66961
334.782	591.60898
335.107	565.06931
335.432	546.99569
335.757	537.41832
336.082	537.41832
336.407	550.18675
336.732	566.13178
337.057	577.81408
337.381	573.56701
337.706	557.62989
338.031	590.54827
338.355	585.24363
338.68	578.87566
339.004	590.54827
339.329	577.81408
339.653	577.81408
339.977	571.44303
340.301	562.94414
340.626	565.06931
340.95	574.62889
341.274	562.94414
341.598	559.75581
341.922	570.38093
342.246	587.3657
342.57	607.51107
342.894	587.3657
343.218	579.93717
343.541	578.87566
343.865	560.81866
344.189	557.62989
344.512	567.19418
344.836	579.93717
345.159	574.62889
345.483	568.25651
345.806	561.88144
346.13	579.93717
346.453	602.21215
346.776	573.56701
347.099	567.19418
347.423	582.05997
347.746	576.75242
348.069	574.62889
348.392	597.97173
348.715	603.27207
349.038	574.62889
349.361	560.81866
349.683	590.54827
350.006	596.91145
350.329	587.3657
350.652	584.18248
350.974	553.37712
351.297	551.25029
351.619	559.75581
351.942	567.19418
352.264	573.56701
352.587	570.38093
352.909	558.69289
353.231	568.25651
353.554	575.69069
353.876	574.62889
354.198	592.66961
354.52	590.54827
354.842	590.54827
355.164	603.27207
355.486	604.33193
355.808	590.54827
356.13	582.05997
356.452	593.73018
356.773	582.05997
357.095	567.19418
357.417	549.12314
357.738	551.25029
358.06	583.12126
358.381	583.12126
358.703	586.3047
359.024	570.38093
359.346	546.99569
359.667	567.19418
359.988	572.50506
360.309	539.54717
360.631	543.80393
360.952	586.3047
361.273	596.91145
361.594	583.12126
361.915	567.19418
362.236	558.69289
362.557	577.81408
362.878	584.18248
363.198	583.12126
363.519	588.42663
363.84	585.24363
364.16	577.81408
364.481	571.44303
364.802	573.56701
365.122	564.00676
365.443	584.18248
365.763	604.33193
366.083	586.3047
366.404	582.05997
366.724	579.93717
367.044	584.18248
367.364	597.97173
367.685	595.8511
368.005	587.3657
368.325	574.62889
368.645	566.13178
368.965	595.8511
369.284	591.60898
369.604	564.00676
369.924	571.44303
370.244	601.15215
370.564	592.66961
370.883	571.44303
371.203	586.3047
371.522	592.66961
371.842	595.8511
372.161	593.73018
372.481	592.66961
372.8	569.31875
373.119	574.62889
373.439	607.51107
373.758	600.09208
374.077	594.79068
374.396	587.3657
374.715	548.05945
375.034	551.25029
375.353	572.50506
375.672	575.69069
375.991	568.25651
376.31	559.75581
376.629	585.24363
376.948	596.91145
377.266	603.27207
377.585	617.04472
377.904	608.57064
378.222	592.66961
378.541	574.62889
378.859	558.69289
379.178	562.94414
379.496	586.3047
379.814	603.27207
380.133	570.38093
380.451	556.56681
380.769	584.18248
381.087	569.31875
381.405	562.94414
381.723	577.81408
382.041	574.62889
382.359	574.62889
382.677	607.51107
382.995	610.68958
383.313	570.38093
383.631	560.81866
383.949	564.00676
384.266	577.81408
384.584	592.66961
384.901	605.39171
385.219	592.66961
385.537	573.56701
385.854	574.62889
386.171	566.13178
386.489	554.44043
386.806	579.93717
387.123	626.57276
387.441	608.57064
387.758	602.21215
388.075	589.48748
388.392	568.25651
388.709	572.50506
389.026	562.94414
389.343	566.13178
389.66	570.38093
389.977	593.73018
390.294	588.42663
390.61	565.06931
390.927	585.24363
391.244	592.66961
391.56	582.05997
391.877	574.62889
392.193	572.50506
392.51	578.87566
392.826	594.79068
393.143	585.24363
393.459	566.13178
393.775	575.69069
394.092	561.88144
394.408	559.75581
394.724	550.18675
395.04	536.35378
395.356	555.50366
395.672	569.31875
395.988	580.99861
396.304	579.93717
396.62	582.05997
396.936	599.03194
397.252	569.31875
397.567	540.61148
397.883	573.56701
398.199	595.8511
398.514	570.38093
398.83	571.44303
399.146	584.18248
399.461	575.69069
399.777	577.81408
400.092	584.18248
400.407	570.38093
400.723	555.50366
401.038	567.19418
401.353	562.94414
401.668	561.88144
401.983	579.93717
402.298	585.24363
402.613	564.00676
402.928	560.81866
403.243	555.50366
403.558	577.81408
403.873	584.18248
404.188	568.25651
404.503	571.44303
404.817	555.50366
405.132	554.44043
405.447	564.00676
405.761	589.48748
406.076	614.92662
406.39	589.48748
406.705	544.86793
407.019	564.00676
407.334	585.24363
407.648	577.81408
407.962	585.24363
408.276	576.75242
408.591	538.48278
408.905	531.0299
409.219	552.31374
409.533	564.00676
409.847	568.25651
410.161	556.56681
410.475	546.99569
410.789	548.05945
411.102	565.06931
411.416	611.74894
411.73	623.39736
412.044	589.48748
412.357	586.3047
412.671	584.18248
412.984	594.79068
413.298	611.74894
413.611	594.79068
413.925	595.8511
414.238	602.21215
414.552	602.21215
414.865	584.18248
415.178	565.06931
415.491	576.75242
415.804	584.18248
416.118	579.93717
416.431	570.38093
416.744	576.75242
417.057	574.62889
417.37	561.88144
417.683	564.00676
417.995	573.56701
418.308	558.69289
418.621	542.73986
418.934	573.56701
419.246	570.38093
419.559	567.19418
419.872	582.05997
420.184	576.75242
420.497	590.54827
420.809	580.99861
421.121	554.44043
421.434	548.05945
421.746	570.38093
422.058	570.38093
422.371	554.44043
422.683	558.69289
422.995	577.81408
423.307	586.3047
423.619	564.00676
423.931	555.50366
424.243	545.93185
424.555	544.86793
424.867	549.12314
425.179	583.12126
425.491	614.92662
425.802	575.69069
426.114	535.28916
426.426	541.6757
426.737	560.81866
427.049	569.31875
427.361	589.48748
427.672	601.15215
427.984	567.19418
428.295	566.13178
428.606	571.44303
428.918	574.62889
429.229	646.66949
429.54	654.06749
429.851	574.62889
430.163	570.38093
430.474	601.15215
430.785	584.18248
431.096	576.75242
431.407	574.62889
431.718	561.88144
432.029	558.69289
432.339	573.56701
432.65	589.48748
432.961	582.05997
433.272	565.06931
433.582	564.00676
433.893	577.81408
434.204	604.33193
434.514	601.15215
434.825	584.18248
435.135	601.15215
435.446	627.63109
435.756	626.57276
436.066	595.8511
436.377	605.39171
436.687	594.79068
436.997	568.25651
437.307	572.50506
437.617	571.44303
437.927	553.37712
438.237	558.69289
438.547	576.75242
438.857	573.56701
439.167	561.88144
439.477	573.56701
439.787	580.99861
440.097	566.13178
440.407	582.05997
440.716	585.24363
441.026	588.42663
441.336	584.18248
441.645	578.87566
441.955	600.09208
442.264	617.04472
442.574	610.68958
442.883	623.39736
443.192	624.4559
443.502	596.91145
443.811	592.66961
444.12	586.3047
444.429	568.25651
444.739	583.12126
445.048	606.45143
445.357	599.03194
445.666	600.09208
445.975	575.69069
446.284	541.6757
446.593	566.13178
446.901	605.39171
447.21	614.92662
447.519	571.44303
447.828	554.44043
448.136	606.45143
448.445	615.9857
448.754	586.3047
449.062	564.00676
449.371	568.25651
449.679	592.66961
449.988	588.42663
450.296	588.42663
450.605	591.60898
450.913	604.33193
451.221	655.12409
451.529	644.55518
451.838	597.97173
452.146	588.42663
452.454	564.00676
452.762	592.66961
453.07	609.63015
453.378	560.81866
453.686	570.38093
453.994	604.33193
454.302	588.42663
454.609	578.87566
454.917	619.16254
455.225	614.92662
455.533	589.48748
455.84	572.50506
456.148	551.25029
456.455	572.50506
456.763	579.93717
457.07	583.12126
457.378	576.75242
457.685	556.56681
457.993	565.06931
458.3	554.44043
458.607	542.73986
458.915	546.99569
459.222	582.05997
459.529	609.63015
459.836	596.91145
460.143	577.81408
460.45	541.6757
460.757	546.99569
461.064	576.75242
461.371	578.87566
461.678	583.12126
461.985	577.81408
462.292	568.25651
462.598	597.97173
462.905	610.68958
463.212	601.15215
463.518	583.12126
463.825	593.73018
464.131	586.3047
464.438	566.13178
464.744	582.05997
465.051	570.38093
465.357	573.56701
465.664	594.79068
465.97	582.05997
466.276	564.00676
466.582	567.19418
466.889	575.69069
467.195	570.38093
467.501	550.18675
467.807	584.18248
468.113	566.13178
468.419	522.50757
468.725	544.86793
469.031	566.13178
469.337	625.51436
469.642	630.80567
469.948	577.81408
470.254	555.50366
470.56	557.62989
470.865	568.25651
471.171	561.88144
471.477	570.38093
471.782	593.73018
472.088	593.73018
472.393	608.57064
472.698	583.12126
473.004	568.25651
473.309	618.10366
473.614	600.09208
473.92	564.00676
474.225	543.80393
474.53	550.18675
474.835	558.69289
475.14	546.99569
475.445	562.94414
475.75	565.06931
476.055	575.69069
476.36	595.8511
476.665	583.12126
476.97	569.31875
477.275	561.88144
477.58	560.81866
477.885	560.81866
478.189	548.05945
478.494	569.31875
478.799	580.99861
479.103	584.18248
479.408	589.48748
479.712	570.38093
480.017	573.56701
480.321	580.99861
480.625	571.44303
480.93	578.87566
481.234	570.38093
481.538	541.6757
481.843	539.54717
482.147	549.12314
482.451	566.13178
482.755	590.54827
483.059	592.66961
483.363	592.66961
483.667	596.91145
483.971	585.24363
484.275	579.93717
484.579	568.25651
484.883	562.94414
485.187	573.56701
485.49	585.24363
485.794	580.99861
486.098	565.06931
486.401	594.79068
486.705	575.69069
487.009	549.12314
487.312	575.69069
487.616	557.62989
487.919	541.6757
488.222	541.6757
488.526	523.57314
488.829	558.69289
489.132	595.8511
489.436	549.12314
489.739	536.35378
490.042	540.61148
490.345	557.62989
490.648	572.50506
490.951	579.93717
491.254	580.99861
491.557	562.94414
491.86	572.50506
492.163	566.13178
492.466	559.75581
492.769	565.06931
493.072	577.81408
493.375	611.74894
493.677	606.45143
493.98	600.09208
494.283	615.9857
494.585	601.15215
494.888	573.56701
495.19	570.38093
495.493	595.8511
495.795	612.80824
496.098	610.68958
496.4	578.87566
496.702	557.62989
497.005	542.73986
497.307	573.56701
497.609	573.56701
497.911	566.13178
498.213	582.05997
498.515	562.94414
498.818	582.05997
499.12	587.3657
499.422	571.44303
499.723	561.88144
500.025	584.18248
500.327	588.42663
500.629	568.25651
500.931	578.87566
501.233	562.94414
501.534	541.6757
501.836	549.12314
502.138	546.99569
502.439	550.18675
502.741	575.69069
503.042	603.27207
503.344	606.45143
503.645	612.80824
503.947	567.19418
504.248	534.22446
504.55	578.87566
504.851	569.31875
505.152	544.86793
505.453	560.81866
505.755	577.81408
506.056	590.54827
506.357	591.60898
506.658	575.69069
506.959	588.42663
507.26	584.18248
507.561	589.48748
507.862	589.48748
508.163	564.00676
508.464	576.75242
508.764	572.50506
509.065	554.44043
509.366	576.75242
509.667	582.05997
509.967	572.50506
510.268	582.05997
510.569	611.74894
510.869	590.54827
511.17	555.50366
511.47	571.44303
511.771	564.00676
512.071	592.66961
512.371	578.87566
512.672	554.44043
512.972	572.50506
513.272	568.25651
513.573	580.99861
513.873	566.13178
514.173	539.54717
514.473	540.61148
514.773	574.62889
515.073	608.57064
515.373	607.51107
515.673	579.93717
515.973	549.12314
516.273	571.44303
516.573	603.27207
516.873	591.60898
517.172	577.81408
517.472	589.48748
517.772	577.81408
518.072	555.50366
518.371	565.06931
518.671	565.06931
518.97	554.44043
519.27	583.12126
519.569	599.03194
519.869	577.81408
520.168	578.87566
520.468	571.44303
520.767	555.50366
521.066	554.44043
521.366	577.81408
521.665	561.88144
521.964	539.54717
522.263	577.81408
522.562	571.44303
522.861	559.75581
523.161	566.13178
523.46	552.31374
523.759	549.12314
524.057	565.06931
524.356	568.25651
524.655	532.09483
524.954	539.54717
525.253	564.00676
525.552	578.87566
525.85	569.31875
526.149	569.31875
526.448	574.62889
526.746	560.81866
527.045	542.73986
527.344	554.44043
527.642	595.8511
527.941	591.60898
528.239	572.50506
528.537	571.44303
528.836	590.54827
529.134	577.81408
529.432	570.38093
529.731	585.24363
530.029	591.60898
530.327	575.69069
530.625	552.31374
530.923	573.56701
531.221	582.05997
531.52	567.19418
531.818	556.56681
532.116	536.35378
532.413	550.18675
532.711	579.93717
533.009	571.44303
533.307	572.50506
533.605	564.00676
533.903	551.25029
534.2	569.31875
534.498	573.56701
534.796	576.75242
535.093	580.99861
535.391	584.18248
535.689	577.81408
535.986	559.75581
536.284	583.12126
536.581	607.51107
536.878	622.33876
537.176	590.54827
537.473	565.06931
537.77	595.8511
538.068	583.12126
538.365	576.75242
538.662	594.79068
538.959	580.99861
539.256	571.44303
539.554	585.24363
