Data from white_1_6_ST026791__128__22487.txt Node

Date: Tue Aug 19 16:20:25 AEST 2025
User: mathewyoussef
Spectrometer: ST02679
Trigger mode: 0
Integration Time (sec): 6.653700E-1
Scans to average: 1
Nonlinearity correction enabled: true
Boxcar width: 0
Storing dark spectrum: false
XAxis mode: Wavelengths
Number of Pixels in Spectrum: 1516
>>>>>Begin Spectral Data<<<<<
187.304	603.27207
187.653	632.92172
188.002	627.63109
188.351	604.33193
188.7	586.3047
189.048	587.3657
189.397	674.13176
189.746	656.18062
190.094	596.91145
190.443	597.97173
190.791	588.42663
191.14	624.4559
191.488	626.57276
191.837	601.15215
192.185	606.45143
192.533	593.73018
192.881	579.93717
193.229	584.18248
193.577	621.28009
193.925	641.38322
194.273	614.92662
194.621	612.80824
194.969	599.03194
195.317	577.81408
195.664	601.15215
196.012	607.51107
196.359	592.66961
196.707	582.05997
197.054	577.81408
197.402	575.69069
197.749	572.50506
198.096	590.54827
198.443	591.60898
198.791	573.56701
199.138	597.97173
199.485	617.04472
199.832	574.62889
200.179	562.94414
200.525	562.94414
200.872	546.99569
201.219	565.06931
201.566	615.9857
201.912	638.21066
202.259	611.74894
202.605	591.60898
202.952	610.68958
203.298	607.51107
203.644	589.48748
203.991	584.18248
204.337	602.21215
204.683	617.04472
205.029	599.03194
205.375	597.97173
205.721	638.21066
206.067	660.40609
206.413	622.33876
206.759	612.80824
207.104	597.97173
207.45	584.18248
207.796	613.86746
208.141	619.16254
208.487	599.03194
208.832	591.60898
209.177	585.24363
209.523	595.8511
209.868	597.97173
210.213	599.03194
210.558	600.09208
210.903	584.18248
211.248	583.12126
211.593	584.18248
211.938	586.3047
212.283	612.80824
212.628	612.80824
212.973	589.48748
213.317	592.66961
213.662	613.86746
214.007	608.57064
214.351	595.8511
214.696	615.9857
215.04	607.51107
215.384	591.60898
215.729	587.3657
216.073	612.80824
216.417	624.4559
216.761	589.48748
217.105	596.91145
217.449	609.63015
217.793	585.24363
218.137	569.31875
218.481	554.44043
218.824	553.37712
219.168	568.25651
219.512	588.42663
219.855	593.73018
220.199	588.42663
220.542	565.06931
220.886	577.81408
221.229	595.8511
221.572	600.09208
221.916	588.42663
222.259	569.31875
222.602	590.54827
222.945	576.75242
223.288	582.05997
223.631	612.80824
223.974	583.12126
224.317	568.25651
224.659	588.42663
225.002	602.21215
225.345	589.48748
225.687	592.66961
226.03	632.92172
226.372	632.92172
226.715	580.99861
227.057	553.37712
227.4	590.54827
227.742	621.28009
228.084	611.74894
228.426	601.15215
228.768	605.39171
229.11	602.21215
229.452	584.18248
229.794	583.12126
230.136	571.44303
230.478	562.94414
230.82	567.19418
231.161	561.88144
231.503	631.86373
231.845	644.55518
232.186	645.61237
232.528	657.23708
232.869	596.91145
233.21	587.3657
233.552	591.60898
233.893	585.24363
234.234	571.44303
234.575	573.56701
234.916	614.92662
235.257	605.39171
235.598	603.27207
235.939	619.16254
236.28	582.05997
236.621	561.88144
236.961	638.21066
237.302	663.57452
237.643	595.8511
237.983	586.3047
238.324	582.05997
238.664	595.8511
239.005	590.54827
239.345	579.93717
239.685	601.15215
240.025	597.97173
240.366	586.3047
240.706	596.91145
241.046	593.73018
241.386	561.88144
241.726	569.31875
242.066	589.48748
242.405	577.81408
242.745	585.24363
243.085	590.54827
243.425	606.45143
243.764	661.4623
244.104	697.33557
244.443	662.51844
244.783	592.66961
245.122	585.24363
245.461	568.25651
245.801	558.69289
246.14	567.19418
246.479	561.88144
246.818	578.87566
247.157	638.21066
247.496	660.40609
247.835	604.33193
248.174	569.31875
248.513	569.31875
248.852	663.57452
249.19	658.29348
249.529	601.15215
249.868	619.16254
250.206	604.33193
250.545	585.24363
250.883	562.94414
251.221	582.05997
251.56	593.73018
251.898	586.3047
252.236	586.3047
252.574	586.3047
252.912	584.18248
253.25	562.94414
253.588	560.81866
253.926	603.27207
254.264	615.9857
254.602	613.86746
254.94	615.9857
255.278	586.3047
255.615	557.62989
255.953	560.81866
256.29	596.91145
256.628	611.74894
256.965	597.97173
257.303	587.3657
257.64	605.39171
257.977	617.04472
258.314	610.68958
258.652	623.39736
258.989	596.91145
259.326	570.38093
259.663	590.54827
260	600.09208
260.337	566.13178
260.673	542.73986
261.01	560.81866
261.347	570.38093
261.684	549.12314
262.02	582.05997
262.357	615.9857
262.693	599.03194
263.03	586.3047
263.366	607.51107
263.702	606.45143
264.039	596.91145
264.375	606.45143
264.711	587.3657
265.047	604.33193
265.383	599.03194
265.719	580.99861
266.055	582.05997
266.391	596.91145
266.727	594.79068
267.063	578.87566
267.399	574.62889
267.734	576.75242
268.07	594.79068
268.405	607.51107
268.741	617.04472
269.076	584.18248
269.412	550.18675
269.747	589.48748
270.082	610.68958
270.418	604.33193
270.753	619.16254
271.088	610.68958
271.423	609.63015
271.758	621.28009
272.093	594.79068
272.428	576.75242
272.763	591.60898
273.098	603.27207
273.433	604.33193
273.767	597.97173
274.102	558.69289
274.436	554.44043
274.771	604.33193
275.106	584.18248
275.44	572.50506
275.774	588.42663
276.109	586.3047
276.443	610.68958
276.777	622.33876
277.111	636.09528
277.445	619.16254
277.78	594.79068
278.114	631.86373
278.447	608.57064
278.781	565.06931
279.115	599.03194
279.449	599.03194
279.783	604.33193
280.116	618.10366
280.45	578.87566
280.784	615.9857
281.117	653.01083
281.451	617.04472
281.784	700.49741
282.117	715.24549
282.451	639.26825
282.784	640.32577
283.117	636.09528
283.45	646.66949
283.783	649.84046
284.116	669.90963
284.449	675.18714
284.782	711.03295
285.115	761.52205
285.448	722.61514
285.781	680.46307
286.114	668.85394
286.446	694.17318
286.779	789.8656
287.111	786.71825
287.444	735.24217
287.776	763.62293
288.109	807.69168
288.441	784.61975
288.773	775.17386
289.106	884.07531
289.438	891.38654
289.77	846.43887
290.102	852.71586
290.434	889.29785
290.766	1066.24907
291.098	1077.66165
291.43	1054.83235
291.762	1098.40143
292.094	1104.6208
292.425	1142.94837
292.757	1119.12818
293.089	1175.0285
293.42	1243.23703
293.752	1229.81141
294.083	1285.55083
294.414	1310.30052
294.746	1290.70817
295.077	1384.46934
295.408	1488.32654
295.74	1613.52407
296.071	1654.51799
296.402	1568.4006
296.733	1612.49889
297.064	1667.83557
297.395	1732.33823
297.726	1844.82455
298.056	1924.48788
298.387	2004.07244
298.718	2071.35344
299.049	2127.37979
299.379	2082.56168
299.71	2121.26963
300.04	2193.54499
300.371	2190.49235
300.701	2314.54457
301.031	2524.60665
301.362	2521.56611
301.692	2512.44381
302.022	2560.0711
302.352	2613.74443
302.682	2704.80387
303.012	2744.22964
303.342	2780.60452
303.672	2824.02927
304.002	3001.50125
304.332	3073.97742
304.662	3068.94675
304.992	3117.22629
305.321	3154.41901
305.651	3278.9193
305.98	3397.18558
306.31	3422.21564
306.639	3473.24839
306.969	3511.24789
307.298	3480.24989
307.628	3567.20853
307.957	3701.92586
308.286	3816.47899
308.615	3846.33184
308.944	3865.23219
309.273	3982.50322
309.602	4039.08465
309.931	4141.22259
310.26	4242.24028
310.589	4334.23911
310.918	4378.72035
311.247	4547.55988
311.575	4593.91737
311.904	4551.50598
312.233	4740.7575
312.561	4764.39354
312.89	4857.91393
313.218	5083.13419
313.546	5063.47419
313.875	4987.76716
314.203	5077.23636
314.531	5186.32551
314.859	5211.87236
315.188	5320.92032
315.516	5400.48364
315.844	5478.07811
316.172	5625.41452
316.5	5605.76843
316.827	5594.96331
317.155	5665.6909
317.483	5732.4978
317.811	5820.93623
318.138	5928.07961
318.466	6026.41757
318.794	5989.044
319.121	6010.68053
319.449	6157.28059
319.776	6255.73717
320.103	6360.1672
320.431	6487.35598
320.758	6535.69815
321.085	6463.68434
321.412	6626.50963
321.739	6627.49706
322.066	6663.04912
322.393	6845.90035
322.72	6862.71587
323.047	6789.53489
323.374	6829.08702
323.701	6963.65493
324.028	7042.87756
324.354	7175.68113
324.681	7248.08338
325.008	7372.14411
325.334	7398.9546
325.661	7404.91312
325.987	7537.04918
326.314	7585.75631
326.64	7586.75047
326.966	7680.2239
327.293	7605.64045
327.619	7545.00047
327.945	7672.26703
328.271	7662.32137
328.597	7692.15976
328.923	7770.75352
329.249	7771.74854
329.575	7808.56734
329.901	7860.32133
330.227	7877.24295
330.552	7866.29356
330.878	7948.92102
331.204	8032.56297
331.529	8060.44704
331.855	8197.8927
332.18	8285.54674
332.506	8291.52318
332.831	8301.48388
333.156	8412.04366
333.482	8518.60429
333.807	8469.80805
334.132	8486.73791
334.457	8513.62531
334.782	8575.36038
335.107	8741.58797
335.432	8702.77741
335.757	8721.68589
336.082	8898.74967
336.407	8839.0825
336.732	8886.81777
337.057	9110.39677
337.381	9158.05013
337.706	9083.58458
338.031	8961.37883
338.355	9026.96478
338.68	9188.8173
339.004	9118.34015
339.329	9080.60514
339.653	9077.62563
339.977	9116.35435
340.301	9260.24829
340.626	9411.9002
340.95	9521.79655
341.274	9561.37188
341.598	9502.99322
341.922	9577.19794
342.246	9659.25799
342.57	9613.78675
342.894	9749.15427
343.218	9827.13386
343.541	9818.25302
343.865	9882.3757
344.189	10017.40145
344.512	10065.65532
344.836	10094.20415
345.159	9981.93639
345.483	10104.04694
345.806	10121.7619
346.13	10094.20415
346.453	10202.43056
346.776	10088.29807
347.099	10382.28173
347.423	10540.34403
347.746	10433.34775
348.069	10455.92984
348.392	10512.8641
348.715	10418.61875
349.038	10516.79001
349.361	10589.40743
349.683	10526.60449
350.006	10623.74652
350.329	10824.82287
350.652	10959.19876
350.974	10852.28462
351.297	10784.6113
351.619	10898.38269
351.942	11128.96784
352.264	11134.85859
352.587	11147.62271
352.909	11244.86784
353.231	11169.22618
353.554	11213.4264
353.876	11344.16958
354.198	11416.99837
354.52	11528.35407
354.842	11493.843
355.164	11480.04388
355.486	11507.64512
355.808	11415.02911
356.13	11418.96768
356.452	11456.395
356.773	11423.8912
357.095	11273.36966
357.417	11281.23365
357.738	11434.72412
358.06	11533.28581
358.381	11636.9515
358.703	11558.93752
359.024	11537.2315
359.346	11667.59628
359.667	11660.67485
359.988	11627.07002
360.309	11632.01052
360.631	11701.22861
360.952	11944.34898
361.273	11954.30415
361.594	11977.2114
361.915	12206.13857
362.236	12170.04171
362.557	12185.07691
362.878	12226.21088
363.198	12135.98879
363.519	12151.00758
363.84	12172.04598
364.16	12179.06195
364.481	12279.46792
364.802	12236.25206
365.122	12308.6496
365.443	12358.02414
365.763	12141.99545
366.083	12072.98663
366.404	11994.15229
366.724	11974.22267
367.044	12049.0176
367.364	11980.20038
367.685	11998.13957
368.005	11863.80948
368.325	11871.75649
368.645	12117.97562
368.965	12101.9724
369.284	12003.1243
369.604	12060.99996
369.924	12299.59007
370.244	12457.03557
370.564	12398.39413
370.883	12465.13394
371.203	12560.47327
371.522	12576.73536
371.842	12819.83778
372.161	12834.20895
372.481	12605.21822
372.8	12601.14735
373.119	12619.47126
373.439	12747.07734
373.758	12857.83591
374.077	12710.26249
374.396	12668.39796
374.715	12648.00068
375.034	12397.38417
375.353	12036.04151
375.672	11539.20444
375.991	10960.17974
376.31	10532.49296
376.629	10446.11189
376.948	10621.78439
377.266	10873.86212
377.585	11218.33854
377.904	11704.1973
378.222	12209.14856
378.541	12677.58196
378.859	13032.09146
379.178	13263.69431
379.496	13198.08267
379.814	12760.38444
380.133	12628.63803
380.451	12720.4836
380.769	12512.76107
381.087	12299.59007
381.405	12142.99667
381.723	12239.26508
382.041	12496.5381
382.359	12565.5541
382.677	12543.20577
382.995	12631.69434
383.313	12568.60306
383.631	12594.02484
383.949	12739.91481
384.266	12764.48031
384.584	12855.78054
384.901	12788.04408
385.219	12946.36859
385.537	13018.64717
385.854	12817.7854
386.171	12860.91926
386.489	12977.32149
386.806	12953.58775
387.123	12973.19238
387.441	13064.17725
387.758	13030.02268
388.075	12901.03577
388.392	12695.9597
388.709	12452.98729
389.026	12522.90543
389.343	12638.82711
389.66	12845.50614
389.977	12907.21296
390.294	12817.7854
390.61	12984.54896
390.927	13088.00659
391.244	12960.80885
391.56	12853.72534
391.877	12881.48419
392.193	12814.70713
392.51	12733.77706
392.826	12677.58196
393.143	12739.91481
393.459	12727.64077
393.775	12620.48963
394.092	12767.55263
394.408	12926.78357
394.724	12943.27527
395.04	13112.89327
395.356	13103.55823
395.672	13279.33582
395.988	13620.82427
396.304	13741.76658
396.62	13708.10118
396.936	13755.44466
397.252	13837.51726
397.567	13907.99427
397.883	14014.11755
398.199	13807.00374
398.514	13787.01124
398.83	13892.21943
399.146	13672.34015
399.461	13643.95013
399.777	13742.81872
400.092	13652.3611
400.407	13608.21304
400.723	13448.70229
401.038	13052.78774
401.353	12958.74548
401.668	13084.89728
401.983	13035.19492
402.298	12835.23576
402.613	12668.39796
402.928	12508.70441
403.243	12442.86922
403.558	12648.00068
403.873	12861.94712
404.188	12837.28952
404.503	12680.64402
404.817	12527.97906
405.132	12604.20045
405.447	12714.35045
405.761	12661.2571
406.076	12628.63803
406.39	12791.11919
406.705	12889.71467
407.019	12843.45174
407.334	12975.25686
407.648	12951.52493
407.962	12805.47452
408.276	12800.34671
408.591	12896.91844
408.905	12834.20895
409.219	12913.39159
409.533	12882.51286
409.847	12876.34145
410.161	13109.78125
410.475	13266.82202
410.789	13253.27076
411.102	12953.58775
411.416	12882.51286
411.73	13061.07056
412.044	12994.87724
412.357	12834.20895
412.671	12896.91844
412.984	13025.88559
413.298	12893.83087
413.611	12889.71467
413.925	12935.02814
414.238	12782.9197
414.552	12879.42697
414.865	12800.34671
415.178	12641.88461
415.491	12518.84723
415.804	12533.05366
416.118	12527.97906
416.431	12255.33964
416.744	12254.33472
417.057	12321.74063
417.37	12315.69787
417.683	12254.33472
417.995	12196.1074
418.308	12144.9992
418.621	12276.4508
418.934	12294.55822
419.246	12275.44516
419.559	12435.78881
419.872	12540.15973
420.184	12702.0885
420.497	12733.77706
420.809	12796.24519
421.121	12668.39796
421.434	12575.71869
421.746	12846.5334
422.058	12760.38444
422.371	12342.90037
422.683	12154.0122
422.995	12047.02095
423.307	12017.08534
423.619	12120.97711
423.931	12082.97883
424.243	11985.18258
424.555	11916.48881
424.867	11872.74998
425.179	11904.55508
425.491	11875.7306
425.802	11703.20772
426.114	11529.34038
426.426	11417.98302
426.737	11490.8858
427.049	11526.38148
427.361	11541.17745
427.672	11628.05808
427.984	11554.99037
428.295	11486.94307
428.606	11379.59132
428.918	11320.56343
429.229	11509.6171
429.54	11408.13712
429.851	11019.0445
430.163	10936.63694
430.474	10973.91378
430.785	11003.34598
431.096	11123.07732
431.407	11199.6735
431.718	11062.22099
432.029	10856.20777
432.339	10874.84292
432.65	11011.19512
432.961	10984.70523
433.272	10898.38269
433.582	10875.82373
433.893	10868.9581
434.204	10979.79998
434.514	11007.27052
434.825	10881.70861
435.135	10839.53447
435.446	10944.48438
435.756	11078.90529
436.066	11083.81273
436.377	11126.02255
436.687	11100.49904
436.997	11022.96928
437.307	11138.78589
437.617	11214.40881
437.927	11034.74404
438.237	11086.75725
438.547	11172.17237
438.857	11189.85097
439.167	11443.58866
439.477	11326.46436
439.787	11242.90248
440.097	11321.54689
440.407	11224.23339
440.716	11016.10095
441.026	11021.98808
441.336	11158.42401
441.645	11037.68783
441.955	10984.70523
442.264	11017.08213
442.574	11152.53229
442.883	10978.81894
443.192	10750.28382
443.502	10927.80876
443.811	10784.6113
444.12	10767.93807
444.429	10692.41432
444.739	10539.36266
445.048	10670.83429
445.357	10554.08276
445.666	10622.76546
445.975	10669.85335
446.284	10531.51156
446.593	10515.80854
446.901	10431.38395
447.21	10370.49501
447.519	10292.87628
447.828	10327.26935
448.136	10396.03181
448.445	10661.02483
448.754	10675.73893
449.062	10453.96629
449.371	10498.14127
449.679	10706.14656
449.988	10930.75147
450.296	11131.91319
450.605	11464.27703
450.913	11830.05232
451.221	12311.67007
451.529	12572.6689
451.838	12299.59007
452.146	11889.64318
452.454	11748.75052
452.762	11784.42497
453.07	11473.14542
453.378	11248.79865
453.686	11305.8128
453.994	11305.8128
454.302	11181.01137
454.609	10783.63053
454.917	10550.15749
455.225	10510.90111
455.533	10411.74478
455.84	10402.90642
456.148	10396.03181
456.455	10041.03857
456.763	10088.29807
457.07	10606.08691
457.378	10625.70864
457.685	10343.97163
457.993	10393.08546
458.3	10615.89793
458.607	10651.21512
458.915	10693.3952
459.222	10908.19119
459.529	10866.9965
459.836	10860.13093
460.143	10694.37609
460.45	10531.51156
460.757	10568.80196
461.064	10438.25714
461.371	10461.82036
461.678	10571.7457
461.985	10774.80354
462.292	10994.516
462.598	11289.09828
462.905	11527.36777
463.212	11683.42034
463.518	11821.1213
463.825	12105.97246
464.131	12741.96104
464.438	12810.60335
464.744	12417.59045
465.051	12195.10446
465.357	12302.60959
465.664	12282.48535
465.97	11654.74297
466.276	11473.14542
466.582	11381.55966
466.889	11345.15331
467.195	11716.07395
467.501	12181.06681
467.807	12969.06391
468.113	13721.77699
468.419	14412.7454
468.725	14810.41794
469.031	15088.04625
469.337	15232.39463
469.642	14937.21922
469.948	14592.8843
470.254	14445.57435
470.56	13941.63741
470.865	13291.85431
471.171	13021.74911
471.477	12777.79633
471.782	12442.86922
472.088	12180.06437
472.393	12047.02095
472.698	11529.34038
473.004	11161.36997
473.309	11508.6311
473.614	11916.48881
473.92	12214.16589
474.225	12366.09348
474.53	12300.59654
474.835	12288.52116
475.14	12067.99166
475.445	11678.47477
475.75	11226.19841
476.055	10906.22948
476.36	10815.99595
476.665	10403.88848
476.97	9984.89225
477.275	10091.25115
477.58	10227.99758
477.885	10232.91373
478.189	10095.18846
478.494	9877.44456
478.799	9761.99033
479.103	9801.47607
479.408	9817.26622
479.712	9917.8732
480.017	10101.09419
480.321	10220.13134
480.625	10358.70741
480.93	10623.74652
481.234	11115.22364
481.538	11537.2315
481.843	11740.82676
482.147	11913.50503
482.451	12175.05263
482.755	12553.36176
483.059	12569.61946
483.363	12508.70441
483.667	12619.47126
483.971	12601.14735
484.275	12492.48389
484.579	12796.24519
484.883	13081.7883
485.187	12813.68113
485.49	12663.29714
485.794	12520.87625
486.098	12517.83277
486.401	12450.96337
486.705	12251.32018
487.009	11997.14271
487.312	11916.48881
487.616	12076.98314
487.919	11960.27855
488.222	11857.85027
488.526	11873.7435
488.829	11897.59547
489.132	12004.12133
489.436	11812.19221
489.739	11784.42497
490.042	11949.32623
490.345	11853.87795
490.648	11790.37357
490.951	11912.51049
491.254	12036.04151
491.557	12124.97953
491.86	12199.1164
492.163	12541.17503
492.466	12860.91926
492.769	13263.69431
493.072	13601.90825
493.375	13710.20507
493.677	13756.49684
493.98	13759.65342
494.283	13634.48876
494.585	13396.34832
494.888	13179.36178
495.19	12920.60182
495.493	12789.06908
495.795	12473.23474
496.098	12217.17669
496.4	12113.97407
496.702	11953.30851
497.005	11938.37718
497.307	11965.25797
497.609	11851.89195
497.911	11817.15258
498.213	11823.10581
498.515	11779.46844
498.818	11730.92403
499.12	11840.97066
499.422	11710.13525
499.723	11624.10594
500.025	11761.62961
500.327	11605.33732
500.629	11717.0638
500.931	11899.5838
501.233	11726.96354
501.534	11650.78877
501.836	11658.69748
502.138	11667.59628
502.439	11766.58411
502.741	11883.68004
503.042	11843.9489
503.344	11849.90604
503.645	11962.27024
503.947	11850.89898
504.248	11922.4571
504.55	11893.61912
504.851	11840.97066
505.152	12038.03751
505.453	11906.54378
505.755	11839.97796
506.056	11870.76303
506.357	11847.92023
506.658	11747.75997
506.959	11723.99339
507.26	11977.2114
507.561	11848.91312
507.862	11701.22861
508.163	11727.95363
508.464	11598.42423
508.764	11589.53727
509.065	11652.76583
509.366	11768.56607
509.667	11847.92023
509.967	11687.37716
510.268	11476.10181
510.569	11468.21839
510.869	11500.74368
511.17	11398.29253
511.47	11384.51225
511.771	11486.94307
512.071	11534.27221
512.371	11420.93705
512.672	11204.58507
512.972	11247.81594
513.272	11416.99837
513.573	11305.8128
513.873	11227.18093
514.173	11207.5321
514.473	11291.06454
514.773	11311.71276
515.073	11229.146
515.373	11221.28593
515.673	11058.29549
515.973	11042.59423
516.273	11098.53586
516.573	11033.76279
516.873	10893.47851
517.172	10819.91902
517.472	10789.51517
517.772	10827.76519
518.072	10834.6306
518.371	10787.55362
518.671	10807.16903
518.97	10815.99595
519.27	10764.99571
