Data from white_1_6_ST026791__105__22464.txt Node

Date: Tue Aug 19 16:19:54 AEST 2025
User: mathewyoussef
Spectrometer: ST02679
Trigger mode: 0
Integration Time (sec): 6.653700E-1
Scans to average: 1
Nonlinearity correction enabled: true
Boxcar width: 0
Storing dark spectrum: false
XAxis mode: Wavelengths
Number of Pixels in Spectrum: 1516
>>>>>Begin Spectral Data<<<<<
187.304	576.75242
187.653	633.97964
188.002	627.63109
188.351	578.87566
188.7	585.24363
189.048	593.73018
189.397	590.54827
189.746	561.88144
190.094	568.25651
190.443	601.15215
190.791	602.21215
191.14	591.60898
191.488	577.81408
191.837	591.60898
192.185	572.50506
192.533	545.93185
192.881	577.81408
193.229	595.8511
193.577	580.99861
193.925	572.50506
194.273	575.69069
194.621	579.93717
194.969	573.56701
195.317	579.93717
195.664	589.48748
196.012	566.13178
196.359	582.05997
196.707	604.33193
197.054	611.74894
197.402	600.09208
197.749	579.93717
198.096	567.19418
198.443	580.99861
198.791	572.50506
199.138	532.09483
199.485	550.18675
199.832	586.3047
200.179	592.66961
200.525	565.06931
200.872	574.62889
201.219	622.33876
201.566	620.22135
201.912	602.21215
202.259	612.80824
202.605	597.97173
202.952	560.81866
203.298	565.06931
203.644	595.8511
203.991	600.09208
204.337	582.05997
204.683	589.48748
205.029	602.21215
205.375	582.05997
205.721	609.63015
206.067	624.4559
206.413	585.24363
206.759	564.00676
207.104	568.25651
207.45	602.21215
207.796	614.92662
208.141	604.33193
208.487	588.42663
208.832	588.42663
209.177	596.91145
209.523	572.50506
209.868	571.44303
210.213	580.99861
210.558	566.13178
210.903	589.48748
211.248	587.3657
211.593	567.19418
211.938	570.38093
212.283	617.04472
212.628	612.80824
212.973	587.3657
213.317	613.86746
213.662	609.63015
214.007	585.24363
214.351	562.94414
214.696	575.69069
215.04	574.62889
215.384	573.56701
215.729	587.3657
216.073	582.05997
216.417	602.21215
216.761	592.66961
217.105	568.25651
217.449	594.79068
217.793	603.27207
218.137	590.54827
218.481	601.15215
218.824	620.22135
219.168	594.79068
219.512	594.79068
219.855	595.8511
220.199	596.91145
220.542	585.24363
220.886	590.54827
221.229	621.28009
221.572	608.57064
221.916	605.39171
222.259	595.8511
222.602	594.79068
222.945	624.4559
223.288	621.28009
223.631	578.87566
223.974	572.50506
224.317	586.3047
224.659	590.54827
225.002	618.10366
225.345	620.22135
225.687	593.73018
226.03	597.97173
226.372	582.05997
226.715	604.33193
227.057	623.39736
227.4	599.03194
227.742	602.21215
228.084	591.60898
228.426	594.79068
228.768	591.60898
229.11	586.3047
229.452	582.05997
229.794	578.87566
230.136	575.69069
230.478	562.94414
230.82	592.66961
231.161	629.74755
231.503	666.74236
231.845	606.45143
232.186	586.3047
232.528	639.26825
232.869	601.15215
233.21	595.8511
233.552	585.24363
233.893	570.38093
234.234	586.3047
234.575	578.87566
234.916	599.03194
235.257	603.27207
235.598	599.03194
235.939	595.8511
236.28	560.81866
236.621	560.81866
236.961	604.33193
237.302	612.80824
237.643	569.31875
237.983	583.12126
238.324	624.4559
238.664	638.21066
239.005	595.8511
239.345	579.93717
239.685	594.79068
240.025	582.05997
240.366	575.69069
240.706	600.09208
241.046	612.80824
241.386	578.87566
241.726	586.3047
242.066	579.93717
242.405	579.93717
242.745	624.4559
243.085	617.04472
243.425	589.48748
243.764	610.68958
244.104	636.09528
244.443	624.4559
244.783	605.39171
245.122	595.8511
245.461	589.48748
245.801	589.48748
246.14	572.50506
246.479	561.88144
246.818	572.50506
247.157	595.8511
247.496	600.09208
247.835	569.31875
248.174	543.80393
248.513	567.19418
248.852	620.22135
249.19	614.92662
249.529	592.66961
249.868	590.54827
250.206	586.3047
250.545	605.39171
250.883	602.21215
251.221	601.15215
251.56	637.15301
251.898	615.9857
252.236	604.33193
252.574	601.15215
252.912	587.3657
253.25	595.8511
253.588	566.13178
253.926	577.81408
254.264	592.66961
254.602	556.56681
254.94	573.56701
255.278	594.79068
255.615	573.56701
255.953	558.69289
256.29	573.56701
256.628	580.99861
256.965	568.25651
257.303	573.56701
257.64	621.28009
257.977	630.80567
258.314	597.97173
258.652	599.03194
258.989	603.27207
259.326	593.73018
259.663	574.62889
260	556.56681
260.337	557.62989
260.673	573.56701
261.01	571.44303
261.347	579.93717
261.684	554.44043
262.02	545.93185
262.357	577.81408
262.693	573.56701
263.03	556.56681
263.366	544.86793
263.702	568.25651
264.039	595.8511
264.375	591.60898
264.711	591.60898
265.047	582.05997
265.383	584.18248
265.719	590.54827
266.055	579.93717
266.391	611.74894
266.727	588.42663
267.063	549.12314
267.399	585.24363
267.734	597.97173
268.07	596.91145
268.405	593.73018
268.741	589.48748
269.076	585.24363
269.412	557.62989
269.747	552.31374
270.082	565.06931
270.418	593.73018
270.753	629.74755
271.088	643.49793
271.423	631.86373
271.758	589.48748
272.093	590.54827
272.428	597.97173
272.763	582.05997
273.098	590.54827
273.433	594.79068
273.767	593.73018
274.102	590.54827
274.436	562.94414
274.771	559.75581
275.106	597.97173
275.44	602.21215
275.774	609.63015
276.109	584.18248
276.443	565.06931
276.777	592.66961
277.111	599.03194
277.445	607.51107
277.78	612.80824
278.114	628.68935
278.447	609.63015
278.781	597.97173
279.115	586.3047
279.449	584.18248
279.783	617.04472
280.116	592.66961
280.45	574.62889
280.784	600.09208
281.117	605.39171
281.451	595.8511
281.784	661.4623
282.117	667.79818
282.451	604.33193
282.784	583.12126
283.117	580.99861
283.45	611.74894
283.783	611.74894
284.116	589.48748
284.449	631.86373
284.782	673.07633
285.115	680.46307
285.448	672.02082
285.781	647.72654
286.114	622.33876
286.446	635.0375
286.779	722.61514
287.111	725.77269
287.444	674.13176
287.776	715.24549
288.109	748.9121
288.441	729.98193
288.773	734.19024
289.106	793.01248
289.438	807.69168
289.77	784.61975
290.102	802.45027
290.434	820.26583
290.766	948.7572
291.098	1010.1622
291.43	981.03784
291.762	994.56359
292.094	951.88283
292.425	967.50548
292.757	1034.06382
293.089	1096.32804
293.42	1108.7664
293.752	1101.51126
294.083	1225.67954
294.414	1281.42452
294.746	1236.00841
295.077	1228.77848
295.408	1323.70086
295.74	1533.50988
296.071	1548.90533
296.402	1519.13719
296.733	1576.60729
297.064	1627.87485
297.395	1679.10226
297.726	1657.59151
298.056	1760.98728
298.387	1884.66625
298.718	1960.20848
299.049	2111.08505
299.379	2054.02866
299.71	2005.09225
300.04	2154.87006
300.371	2130.43471
300.701	2126.36146
301.031	2303.367
301.362	2360.25553
301.692	2378.53292
302.022	2453.63107
302.352	2508.38913
302.682	2610.70729
303.012	2669.40454
303.342	2727.04655
303.672	2811.91327
304.002	2981.35586
304.332	3008.55079
304.662	2977.32611
304.992	3064.92196
305.321	3131.30155
305.651	3237.7788
305.98	3326.04995
306.31	3289.95279
306.639	3281.92861
306.969	3397.18558
307.298	3448.23712
307.628	3490.25079
307.957	3616.13648
308.286	3776.65563
308.615	3810.50691
308.944	3904.01212
309.273	3962.63995
309.602	3913.95234
309.931	4101.57324
310.26	4261.04372
310.589	4306.55077
310.918	4376.74387
311.247	4558.41129
311.575	4573.20689
311.904	4567.28889
312.233	4749.62151
312.561	4796.88643
312.89	4803.77789
313.218	5010.38377
313.546	5106.72414
313.875	5018.24983
314.203	5054.62666
314.531	5048.72812
314.859	5091.98068
315.188	5179.44719
315.516	5268.85547
315.844	5331.72566
316.172	5459.41628
316.5	5616.57371
316.827	5610.6799
317.155	5614.6091
317.483	5717.76012
317.811	5764.92264
318.138	5890.722
318.466	6028.38479
318.794	5932.9955
319.121	5969.37629
319.449	6155.31204
319.776	6274.4506
320.103	6291.19607
320.431	6371.0084
320.758	6420.29667
321.085	6400.57935
321.412	6552.47391
321.739	6579.12206
322.066	6513.00481
322.393	6505.11235
322.72	6626.50963
323.047	6795.46693
323.374	6962.66495
323.701	7003.26027
324.028	7058.7278
324.354	7085.47936
324.681	6991.3774
325.008	7212.3735
325.334	7402.92692
325.661	7346.33099
325.987	7437.68892
326.314	7621.54924
326.64	7642.43149
326.966	7620.55491
327.293	7508.22875
327.619	7540.03087
327.945	7739.90972
328.271	7733.94042
328.597	7710.0648
328.923	7850.3679
329.249	7899.14292
329.575	7883.21552
329.901	7878.23837
330.227	7979.78691
330.552	8064.4306
330.878	7940.95605
331.204	7954.89487
331.529	8059.45116
331.855	8207.85326
332.18	8268.61349
332.506	8197.8927
332.831	8208.84932
333.156	8321.4052
333.482	8482.75446
333.807	8561.42106
334.132	8563.41242
334.457	8430.96704
334.782	8565.40377
335.107	8767.45814
335.432	8686.85339
335.757	8820.18404
336.082	8903.72106
336.407	8841.07171
336.732	8837.09327
337.057	8939.51093
337.381	9028.9518
337.706	8987.21895
338.031	8899.74396
338.355	9046.83384
338.68	9234.45841
339.004	9074.64606
339.329	9090.53637
339.653	9261.2401
339.977	9229.49821
340.301	9223.54571
340.626	9341.55001
340.95	9427.74779
341.274	9459.43629
341.598	9475.27716
341.922	9558.40423
342.246	9619.71889
342.57	9617.74154
342.894	9739.27932
343.218	9889.27891
343.541	9902.09799
343.865	9954.34456
344.189	9974.05372
344.512	9880.40327
344.836	10010.50636
345.159	10070.57804
345.483	10051.8706
345.806	10120.77781
346.13	10177.84205
346.453	10154.23251
346.776	10037.0994
347.099	10178.82568
347.423	10239.79604
347.746	10179.80931
348.069	10509.91961
348.392	10653.17708
348.715	10406.83464
349.038	10438.25714
349.361	10526.60449
349.683	10506.97509
350.006	10610.99246
350.329	10762.05335
350.652	10721.84014
350.974	10661.02483
351.297	10721.84014
351.619	10866.0157
351.942	10964.10369
352.264	11038.6691
352.587	11164.31599
352.909	11221.28593
353.231	11180.02923
353.554	11167.26208
353.876	11227.18093
354.198	11233.07625
354.52	11369.75039
354.842	11499.75783
355.164	11544.13709
355.486	11520.46412
355.808	11400.26134
356.13	11412.07532
356.452	11453.43948
356.773	11446.54376
357.095	11408.13712
357.417	11359.91067
357.738	11392.38639
358.06	11616.20255
358.381	11568.80659
358.703	11426.84547
359.024	11529.34038
359.346	11523.42273
359.667	11558.93752
359.988	11714.0943
360.309	11779.46844
360.631	11698.2601
360.952	11815.16836
361.273	11841.96338
361.594	11962.27024
361.915	12141.99545
362.236	12130.98411
362.557	12327.78466
362.878	12308.6496
363.198	12170.04171
363.519	12197.11036
363.84	12221.19155
364.16	12274.43956
364.481	12195.10446
364.802	12089.97517
365.122	12246.29663
365.443	12148.00325
365.763	12026.06327
366.083	12114.97441
366.404	12066.99275
366.724	12006.11548
367.044	11988.17223
367.364	11886.66149
367.685	11904.55508
368.005	11824.09809
368.325	11863.80948
368.645	12092.97407
368.965	12110.97323
369.284	12086.97656
369.604	12128.98245
369.924	12263.3802
370.244	12359.03268
370.564	12412.53749
370.883	12358.02414
371.203	12379.2111
371.522	12533.05366
371.842	12795.21991
372.161	12760.38444
372.481	12593.0075
372.8	12600.12973
373.119	12598.09461
373.439	12733.77706
373.758	12783.9445
374.077	12729.68604
374.396	12688.81126
374.715	12611.32572
375.034	12346.93258
375.353	11859.83657
375.672	11460.3359
375.991	10943.50344
376.31	10466.72899
376.629	10317.44359
376.948	10651.21512
377.266	11114.24196
377.585	11355.97511
377.904	11755.68495
378.222	12292.54573
378.541	12688.81126
378.859	12944.30634
379.178	13137.80141
379.496	12950.49359
379.814	12632.71318
380.133	12561.48936
380.451	12581.81932
380.769	12368.11117
381.087	12220.18778
381.405	12140.99426
381.723	12192.09585
382.041	12424.66616
382.359	12422.64434
382.677	12472.22201
382.995	12824.96943
383.313	12831.12875
383.631	12622.52649
383.949	12649.02016
384.266	12749.12414
384.584	12842.4246
384.901	12783.9445
385.219	12762.43229
385.537	12768.57682
385.854	12693.91709
386.171	12791.11919
386.489	12946.36859
386.806	12949.46228
387.123	12841.3975
387.441	12849.61541
387.758	12943.27527
388.075	12737.86873
388.392	12626.60069
388.709	12564.53786
389.026	12457.03557
389.343	12483.36415
389.66	12760.38444
389.977	12748.10072
390.294	12561.48936
390.61	12919.57167
390.927	13147.14743
391.244	12942.24424
391.56	12885.59911
391.877	12745.0307
392.193	12689.83234
392.51	12898.97702
392.826	12761.40835
393.143	12691.87463
393.459	12730.70874
393.775	12822.91665
394.092	12782.9197
394.408	12775.74727
394.724	12925.75318
395.04	13081.7883
395.356	13280.37885
395.672	13390.07039
395.988	13482.24225
396.304	13577.74527
396.62	13642.89881
396.936	13779.64558
397.252	13776.48888
397.567	13901.68465
397.883	14139.84966
398.199	13911.14892
398.514	13808.05597
398.83	13859.61094
399.146	13694.42663
399.461	13724.9331
399.777	13822.78693
400.092	13675.4951
400.407	13536.79476
400.723	13375.42582
401.038	13068.32004
401.353	12996.94337
401.668	12924.72283
401.983	12714.35045
402.298	12677.58196
402.613	12690.85347
402.928	12627.61934
403.243	12398.39413
403.558	12560.47327
403.873	12979.38629
404.188	12801.37219
404.503	12505.66231
404.817	12624.56351
405.132	12691.87463
405.447	12720.4836
405.761	12678.60261
406.076	12527.97906
406.39	12706.17517
406.705	12831.12875
407.019	12892.80176
407.334	13185.6008
407.648	13149.22472
407.962	12845.50614
408.276	12734.79992
408.591	12782.9197
408.905	12812.65516
409.219	12982.48377
409.533	13047.61223
409.847	12929.87499
410.161	13005.20945
410.475	13180.40153
410.789	13181.44131
411.102	13014.51178
411.416	12984.54896
411.73	13117.04314
412.044	13078.67967
412.357	12974.2246
412.671	12883.54157
412.984	12862.97503
413.298	12784.96933
413.611	12741.96104
413.925	12888.68572
414.238	12845.50614
414.552	12801.37219
414.865	12677.58196
415.178	12607.2539
415.491	12549.29889
415.804	12477.28605
416.118	12452.98729
416.431	12204.13207
416.744	12194.10156
417.057	12401.42424
417.37	12431.74369
417.683	12211.15539
417.995	12052.01279
418.308	12128.98245
418.621	12199.1164
418.934	12125.98021
419.246	12246.29663
419.559	12418.60116
419.872	12580.80245
420.184	12784.96933
420.497	12885.59911
420.809	13018.64717
421.121	12705.15345
421.434	12458.04773
421.746	12728.66339
422.058	12661.2571
422.371	12310.66321
422.683	12147.00187
422.995	11923.4519
423.307	11912.51049
423.619	12027.06096
423.931	11956.29551
424.243	11991.16214
424.555	11926.43648
424.867	11789.38208
425.179	11761.62961
425.491	11623.11795
425.802	11544.13709
426.114	11515.53342
426.426	11452.45434
426.737	11488.9144
427.049	11412.07532
427.361	11399.27693
427.672	11509.6171
427.984	11411.09075
428.295	11414.0445
428.606	11448.5139
428.918	11370.73443
429.229	11397.30814
429.54	11269.4379
429.851	11043.57552
430.163	10940.56064
430.474	10792.45748
430.785	10909.17205
431.096	11070.07224
431.407	10996.47819
431.718	11003.34598
432.029	10837.57292
432.339	10828.74596
432.65	10971.95174
432.961	10980.78102
433.272	11007.27052
433.582	11053.38871
433.893	10975.87583
434.204	10950.37006
434.514	10975.87583
434.825	10854.24619
435.135	10908.19119
435.446	10859.15014
435.756	10929.77056
436.066	11158.42401
436.377	11187.88656
436.687	11131.91319
436.997	11025.91291
437.307	11129.94962
437.617	11134.85859
437.927	10960.17974
438.237	10986.66736
438.547	11073.99799
438.857	11072.03511
439.167	11284.18281
439.477	11303.84623
439.787	11243.88515
440.097	11266.48918
440.407	11235.04142
440.716	11026.89413
441.026	10976.85686
441.336	11141.73144
441.645	10935.65602
441.955	10665.92959
442.264	10730.6676
442.574	11033.76279
442.883	10850.32305
443.192	10713.01255
443.502	10996.47819
443.811	11004.32711
444.12	10809.13056
444.429	10601.18128
444.739	10557.02667
445.048	10600.20014
445.357	10468.69241
445.666	10552.12013
445.975	10595.29441
446.284	10453.96629
446.593	10376.38848
446.901	10374.42401
447.21	10543.28811
447.519	10388.17477
447.828	10253.55958
448.136	10362.63671
448.445	10601.18128
448.754	10577.63307
449.062	10369.51274
449.371	10381.29954
449.679	10619.82225
449.988	10866.0157
450.296	11097.55428
450.605	11434.72412
450.913	11746.76945
451.221	12293.55196
451.529	12475.26032
451.838	12159.02054
452.146	11879.70512
452.454	11755.68495
452.762	11807.23244
453.07	11525.39522
453.378	11261.57484
453.686	11264.52341
453.994	11239.95452
454.302	10958.21778
454.609	10583.52031
454.917	10521.6973
455.225	10416.65479
455.533	10354.77801
455.84	10296.80733
456.148	10201.44711
456.455	10050.88591
456.763	10093.21982
457.07	10395.0497
457.378	10445.13006
457.685	10374.42401
457.993	10376.38848
458.3	10528.56733
458.607	10729.68678
458.915	10752.24542
459.222	10856.20777
459.529	10849.34227
459.836	10887.59353
460.143	10675.73893
460.45	10350.8485
460.757	10455.92984
461.064	10484.39901
461.371	10482.43576
461.678	10589.40743
461.985	10712.0317
462.292	10891.51684
462.598	11254.69516
462.905	11694.30238
463.212	11862.81621
463.518	11952.3129
463.825	12124.97953
464.131	12690.85347
464.438	12873.25628
464.744	12409.50616
465.051	12154.0122
465.357	12155.0138
465.664	12087.97607
465.97	11626.08197
466.276	11452.45434
466.582	11416.01373
466.889	11404.19913
467.195	11656.72018
467.501	12139.9931
467.807	13011.41066
468.113	13739.66232
468.419	14357.12779
468.725	14845.14148
469.031	15166.66978
469.337	15274.84267
469.642	15023.21541
469.948	14657.01002
470.254	14504.80161
470.56	14115.79168
470.865	13334.66033
471.171	12988.6798
471.477	12755.26552
471.782	12358.02414
472.088	12113.97407
472.393	11991.16214
472.698	11631.02238
473.004	11387.46496
473.309	11593.48685
473.614	11888.64926
473.92	12231.23105
474.225	12289.52725
474.53	12150.0061
474.835	12161.0241
475.14	11967.24993
475.445	11652.76583
475.75	11350.07214
476.055	11008.25166
476.36	10670.83429
476.665	10288.94511
476.97	10123.73007
477.275	10288.94511
477.58	10333.16449
477.885	10237.8297
478.189	10035.12976
478.494	9825.16041
478.799	9714.58787
479.103	9788.64483
479.408	9816.2794
479.712	9868.56793
480.017	10059.74779
480.321	10184.72732
480.625	10243.72862
480.93	10361.65439
481.234	10919.96164
481.538	11539.20444
481.843	11788.39061
482.147	11940.36768
482.451	12181.06681
482.755	12362.05852
483.059	12325.76984
483.363	12456.02344
483.667	12719.46131
483.971	12694.93837
484.275	12635.76997
484.579	12857.83591
484.883	12915.45146
485.187	12773.69837
485.49	12707.19694
485.794	12479.31193
486.098	12409.50616
486.401	12377.19261
486.705	12231.23105
487.009	12068.99059
487.312	12071.98757
487.616	12043.02802
487.919	11761.62961
488.222	11861.82298
488.526	11990.16547
488.829	11859.83657
489.132	11773.52135
489.436	11696.2812
489.739	11781.45099
490.042	11743.79801
490.345	11662.6523
490.648	11788.39061
490.951	11839.97796
491.254	11951.31731
491.557	12200.11947
491.86	12232.23519
492.163	12506.6763
492.466	12973.19238
492.769	13324.21501
493.072	13502.16803
493.375	13633.43756
493.677	13836.46512
493.98	13863.81894
494.283	13657.61835
494.585	13262.6518
494.888	13105.63242
495.19	12910.3021
495.493	12643.92314
495.795	12416.57979
496.098	12192.09585
496.4	12126.98093
496.702	11973.22648
497.005	12032.04986
497.307	12095.97324
497.609	11773.52135
497.911	11661.66357
498.213	11706.17653
498.515	11786.40775
498.818	11856.85715
499.12	11778.4772
499.422	11632.99868
499.723	11574.72885
500.025	11729.93387
500.327	11706.17653
500.629	11813.18424
500.931	11934.39652
501.233	11815.16836
501.534	11871.75649
501.836	11765.59317
502.138	11740.82676
502.439	11823.10581
502.741	11818.14473
503.042	11681.44205
503.344	11783.43362
503.645	12076.98314
503.947	11921.46232
504.248	11711.12498
504.55	11686.38793
504.851	11837.00002
505.152	11954.30415
505.453	11864.80277
505.755	11921.46232
506.056	11938.37718
506.357	11819.13689
506.658	11748.75052
506.959	11749.74108
507.26	11802.27325
507.561	11630.03426
507.862	11557.9507
508.163	11564.85875
508.464	11555.97713
508.764	11599.41176
509.065	11494.82877
509.366	11645.84645
509.667	11817.15258
509.967	11524.40896
510.268	11459.35066
510.569	11582.62619
510.869	11543.15052
511.17	11475.11633
511.47	11432.75438
511.771	11404.19913
512.071	11469.20377
512.371	11517.50565
512.672	11422.90647
512.972	11391.40208
513.272	11295.98037
513.573	11203.60274
513.873	11364.83038
514.173	11387.46496
514.473	11216.37366
514.773	11232.09367
515.073	11214.40881
515.373	11115.22364
515.673	11022.96928
515.973	10938.59879
516.273	10948.40815
516.573	10969.0087
516.873	10857.18856
517.172	10779.70743
517.472	10686.52896
517.772	10708.10828
518.072	10842.47681
518.371	10821.88056
518.671	10711.05085
518.97	10671.81522
519.27	10712.0317
