Data from white_1_6_ST026791__148__22507.txt Node

Date: Tue Aug 19 16:20:52 AEST 2025
User: mathewyoussef
Spectrometer: ST02679
Trigger mode: 0
Integration Time (sec): 6.653700E-1
Scans to average: 1
Nonlinearity correction enabled: true
Boxcar width: 0
Storing dark spectrum: false
XAxis mode: Wavelengths
Number of Pixels in Spectrum: 1516
>>>>>Begin Spectral Data<<<<<
187.304	599.03194
187.653	620.22135
188.002	626.57276
188.351	587.3657
188.7	561.88144
189.048	561.88144
189.397	599.03194
189.746	574.62889
190.094	561.88144
190.443	580.99861
190.791	577.81408
191.14	582.05997
191.488	562.94414
191.837	567.19418
192.185	590.54827
192.533	614.92662
192.881	600.09208
193.229	597.97173
193.577	619.16254
193.925	599.03194
194.273	578.87566
194.621	580.99861
194.969	575.69069
195.317	589.48748
195.664	625.51436
196.012	599.03194
196.359	582.05997
196.707	610.68958
197.054	621.28009
197.402	624.4559
197.749	622.33876
198.096	603.27207
198.443	565.06931
198.791	567.19418
199.138	591.60898
199.485	614.92662
199.832	624.4559
200.179	604.33193
200.525	593.73018
200.872	605.39171
201.219	605.39171
201.566	604.33193
201.912	608.57064
202.259	595.8511
202.605	614.92662
202.952	629.74755
203.298	594.79068
203.644	595.8511
203.991	603.27207
204.337	595.8511
204.683	591.60898
205.029	579.93717
205.375	580.99861
205.721	617.04472
206.067	621.28009
206.413	590.54827
206.759	588.42663
207.104	583.12126
207.45	580.99861
207.796	593.73018
208.141	627.63109
208.487	638.21066
208.832	607.51107
209.177	588.42663
209.523	626.57276
209.868	626.57276
210.213	608.57064
210.558	603.27207
210.903	587.3657
211.248	594.79068
211.593	582.05997
211.938	589.48748
212.283	597.97173
212.628	600.09208
212.973	596.91145
213.317	576.75242
213.662	604.33193
214.007	623.39736
214.351	604.33193
214.696	615.9857
215.04	643.49793
215.384	639.26825
215.729	578.87566
216.073	561.88144
216.417	620.22135
216.761	617.04472
217.105	583.12126
217.449	622.33876
217.793	631.86373
218.137	586.3047
218.481	595.8511
218.824	662.51844
219.168	656.18062
219.512	596.91145
219.855	576.75242
220.199	562.94414
220.542	577.81408
220.886	626.57276
221.229	609.63015
221.572	591.60898
221.916	608.57064
222.259	604.33193
222.602	567.19418
222.945	533.15969
223.288	568.25651
223.631	609.63015
223.974	590.54827
224.317	560.81866
224.659	568.25651
225.002	574.62889
225.345	607.51107
225.687	641.38322
226.03	650.89731
226.372	626.57276
226.715	595.8511
227.057	587.3657
227.4	601.15215
227.742	596.91145
228.084	589.48748
228.426	625.51436
228.768	635.0375
229.11	638.21066
229.452	613.86746
229.794	594.79068
230.136	611.74894
230.478	599.03194
230.82	600.09208
231.161	605.39171
231.503	642.44061
231.845	647.72654
232.186	679.40801
232.528	702.605
232.869	605.39171
233.21	586.3047
233.552	617.04472
233.893	605.39171
234.234	606.45143
234.575	605.39171
234.916	610.68958
235.257	609.63015
235.598	600.09208
235.939	589.48748
236.28	585.24363
236.621	586.3047
236.961	615.9857
237.302	638.21066
237.643	582.05997
237.983	583.12126
238.324	615.9857
238.664	653.01083
239.005	630.80567
239.345	584.18248
239.685	620.22135
240.025	632.92172
240.366	614.92662
240.706	606.45143
241.046	619.16254
241.386	623.39736
241.726	625.51436
242.066	606.45143
242.405	588.42663
242.745	611.74894
243.085	608.57064
243.425	608.57064
243.764	656.18062
244.104	713.13934
244.443	673.07633
244.783	596.91145
245.122	570.38093
245.461	578.87566
245.801	602.21215
246.14	595.8511
246.479	577.81408
246.818	575.69069
247.157	625.51436
247.496	631.86373
247.835	592.66961
248.174	613.86746
248.513	615.9857
248.852	657.23708
249.19	672.02082
249.529	613.86746
249.868	611.74894
250.206	592.66961
250.545	574.62889
250.883	584.18248
251.221	587.3657
251.56	584.18248
251.898	561.88144
252.236	576.75242
252.574	587.3657
252.912	579.93717
253.25	586.3047
253.588	583.12126
253.926	607.51107
254.264	624.4559
254.602	614.92662
254.94	608.57064
255.278	596.91145
255.615	582.05997
255.953	613.86746
256.29	644.55518
256.628	611.74894
256.965	580.99861
257.303	577.81408
257.64	632.92172
257.977	650.89731
258.314	623.39736
258.652	603.27207
258.989	595.8511
259.326	588.42663
259.663	591.60898
260	614.92662
260.337	584.18248
260.673	587.3657
261.01	621.28009
261.347	605.39171
261.684	566.13178
262.02	588.42663
262.357	614.92662
262.693	604.33193
263.03	583.12126
263.366	582.05997
263.702	599.03194
264.039	611.74894
264.375	606.45143
264.711	591.60898
265.047	573.56701
265.383	566.13178
265.719	587.3657
266.055	603.27207
266.391	623.39736
266.727	585.24363
267.063	564.00676
267.399	599.03194
267.734	622.33876
268.07	589.48748
268.405	562.94414
268.741	590.54827
269.076	608.57064
269.412	587.3657
269.747	574.62889
270.082	586.3047
270.418	592.66961
270.753	599.03194
271.088	584.18248
271.423	599.03194
271.758	588.42663
272.093	571.44303
272.428	574.62889
272.763	577.81408
273.098	604.33193
273.433	596.91145
273.767	612.80824
274.102	635.0375
274.436	617.04472
274.771	633.97964
275.106	635.0375
275.44	613.86746
275.774	618.10366
276.109	605.39171
276.443	602.21215
276.777	591.60898
277.111	599.03194
277.445	611.74894
277.78	596.91145
278.114	619.16254
278.447	611.74894
278.781	602.21215
279.115	611.74894
279.449	604.33193
279.783	627.63109
280.116	613.86746
280.45	601.15215
280.784	645.61237
281.117	672.02082
281.451	641.38322
281.784	699.44353
282.117	712.08617
282.451	624.4559
282.784	619.16254
283.117	663.57452
283.45	678.35288
283.783	650.89731
284.116	659.34982
284.449	692.06461
284.782	725.77269
285.115	761.52205
285.448	734.19024
285.781	720.50982
286.114	715.24549
286.446	689.9558
286.779	767.82403
287.111	778.32297
287.444	727.87742
287.776	741.55257
288.109	784.61975
288.441	803.49866
288.773	815.02749
289.106	909.13327
289.438	885.11991
289.77	865.26469
290.102	924.78163
290.434	902.87118
290.766	1044.44986
291.098	1061.06017
291.43	1036.14132
291.762	1083.88498
292.094	1078.69895
292.425	1122.23609
292.757	1102.54781
293.089	1141.91305
293.42	1178.13153
293.752	1194.67667
294.083	1260.78696
294.414	1336.0669
294.746	1370.05669
295.077	1386.52794
295.408	1458.52688
295.74	1557.11463
296.071	1563.27087
296.402	1572.50408
296.733	1688.31908
297.064	1691.39108
297.395	1708.79653
297.726	1834.60544
298.056	1910.19522
298.387	1967.35072
298.718	2024.46635
299.049	2130.43471
299.379	2120.25123
299.71	2124.32477
300.04	2248.4738
300.371	2278.97442
300.701	2251.52435
301.031	2366.34844
301.362	2487.0987
301.692	2485.07075
302.022	2530.68738
302.352	2611.71969
302.682	2639.04939
303.012	2651.19287
303.342	2803.83485
303.672	2919.87755
304.002	3040.76838
304.332	3146.37903
304.662	3123.25889
304.992	3076.99565
305.321	3227.74079
305.651	3370.14276
305.98	3436.22844
306.31	3448.23712
306.639	3402.19233
306.969	3471.24782
307.298	3470.24752
307.628	3582.19019
307.957	3720.86497
308.286	3709.90085
308.615	3823.44577
308.944	4009.31025
309.273	4021.22141
309.602	3965.61978
309.931	4088.6829
310.26	4255.10624
310.589	4296.65996
310.918	4387.614
311.247	4593.91737
311.575	4574.19319
311.904	4613.63805
312.233	4828.38761
312.561	4782.11787
312.89	4793.93284
313.218	5001.53409
313.546	5091.98068
313.875	5017.26659
314.203	5031.03156
314.531	5110.65559
314.859	5136.20864
315.188	5187.30811
315.516	5288.50316
315.844	5358.24721
316.172	5514.41971
316.5	5694.18089
316.827	5582.1938
317.155	5648.00824
317.483	5872.04522
317.811	5808.16035
318.138	5891.70502
318.466	6087.41017
318.794	6028.38479
319.121	6007.72997
319.449	6198.62533
319.776	6314.8398
320.103	6323.70714
320.431	6375.93648
320.758	6503.13931
321.085	6515.96459
321.412	6539.6452
321.739	6570.23876
322.066	6585.04458
322.393	6684.78012
322.72	6712.44299
323.047	6785.58034
323.374	6965.63491
323.701	6999.29919
324.028	6968.60494
324.354	7123.13875
324.681	7178.65582
325.008	7236.17909
325.334	7342.36013
325.661	7368.17257
325.987	7434.70902
326.314	7456.56284
326.64	7443.64887
326.966	7580.78561
327.293	7727.97128
327.619	7717.02826
327.945	7742.89443
328.271	7783.68918
328.597	7838.42423
328.923	7849.37257
329.249	7806.57699
329.575	7845.39131
329.901	7876.24754
330.227	7852.35856
330.552	7899.14292
330.878	8040.52969
331.204	8013.64253
331.529	8013.64253
331.855	8221.79813
332.18	8375.19157
332.506	8276.58208
332.831	8189.9243
333.156	8339.33421
333.482	8449.8899
333.807	8528.56208
334.132	8606.22405
334.457	8561.42106
334.782	8622.15256
335.107	8717.70527
335.432	8626.13457
335.757	8776.41251
336.082	8930.56416
336.407	8846.04464
336.732	8854.99559
337.057	8963.36667
337.381	9028.9518
337.706	9019.01643
338.031	8997.15635
338.355	9038.88653
338.68	9067.6935
339.004	9023.9842
339.329	9094.50868
339.653	9149.11639
339.977	9151.10172
340.301	9224.53781
340.626	9302.88896
340.95	9368.30794
341.274	9494.08525
341.598	9462.40663
341.922	9500.02398
342.246	9655.30474
342.57	9735.32907
342.894	9843.90675
343.218	9869.55426
343.541	9797.52816
343.865	9849.82596
344.189	10022.32626
344.512	10120.77781
344.836	10087.3137
345.159	9969.12676
345.483	10037.0994
345.806	9953.35901
346.13	10043.00811
346.453	10225.04779
346.776	10167.02157
347.099	10390.13906
347.423	10426.47437
347.746	10276.16805
348.069	10500.10437
348.392	10623.74652
348.715	10359.68974
349.038	10353.79564
349.361	10593.3321
349.683	10722.82097
350.006	10697.31873
350.329	10759.11098
350.652	10839.53447
350.974	10873.86212
351.297	10944.48438
351.619	10918.98075
351.942	11004.32711
352.264	11092.64646
352.587	11162.35197
352.909	11198.69121
353.231	11058.29549
353.554	11124.05906
353.876	11256.66073
354.198	11451.46921
354.52	11493.843
354.842	11322.53036
355.164	11449.49898
355.486	11543.15052
355.808	11479.05834
356.13	11561.89806
356.452	11623.11795
356.773	11541.17745
357.095	11313.6795
357.417	11214.40881
357.738	11280.25062
358.06	11469.20377
358.381	11611.26354
358.703	11566.83264
359.024	11502.71545
359.346	11509.6171
359.667	11572.7547
359.988	11645.84645
360.309	11762.62047
360.631	11787.39917
360.952	11845.93451
361.273	11809.21628
361.594	11852.88494
361.915	12060.00127
362.236	12206.13857
362.557	12303.61617
362.878	12255.33964
363.198	12091.97441
363.519	12130.98411
363.84	12193.09869
364.16	12040.03362
364.481	12130.98411
364.802	12230.22695
365.122	12206.13857
365.443	12273.43399
365.763	12167.03555
366.083	12146.00052
366.404	12048.01926
366.724	12069.98955
367.044	12221.19155
367.364	12035.04355
367.685	11980.20038
368.005	11926.43648
368.325	11878.71145
368.645	11960.27855
368.965	12034.04563
369.284	11981.19677
369.604	12066.99275
369.924	12211.15539
370.244	12362.05852
370.564	12458.04773
370.883	12452.98729
371.203	12455.01135
371.522	12362.05852
371.842	12690.85347
372.161	12693.91709
372.481	12453.9993
372.8	12611.32572
373.119	12645.96183
373.439	12788.04408
373.758	12848.58803
374.077	12636.78897
374.396	12754.24185
374.715	12662.2771
375.034	12353.99034
375.353	11962.27024
375.672	11427.83025
375.991	10930.75147
376.31	10496.17815
376.629	10389.15692
376.948	10589.40743
377.266	11019.0445
377.585	11259.60917
377.904	11613.23909
378.222	12135.98879
378.541	12528.99391
378.859	12986.6143
379.178	13249.10228
379.496	13222.02036
379.814	12849.61541
380.133	12659.21721
380.451	12710.26249
380.769	12358.02414
381.087	12321.74063
381.405	12378.20184
381.723	12397.38417
382.041	12554.37757
382.359	12436.80019
382.677	12332.82234
382.995	12525.9495
383.313	12683.70643
383.631	12706.17517
383.949	12632.71318
384.266	12707.19694
384.584	12939.15139
384.901	12818.81157
385.219	12785.99421
385.537	12805.47452
385.854	12704.13176
386.171	12859.89143
386.489	13045.54229
386.806	12968.03188
387.123	12861.94712
387.441	12795.21991
387.758	12814.70713
388.075	12810.60335
388.392	12651.05925
388.709	12502.62056
389.026	12448.93961
389.343	12579.78562
389.66	12849.61541
389.977	12798.29587
390.294	12607.2539
390.61	12975.25686
390.927	13224.10276
391.244	12953.58775
391.56	12832.15544
391.877	12931.93613
392.193	12750.1476
392.51	12643.92314
392.826	12708.21875
393.143	12653.0985
393.459	12756.28922
393.775	12797.27051
394.092	12842.4246
394.408	12902.0652
394.724	12943.27527
395.04	13045.54229
395.356	13106.66958
395.672	13403.67384
395.988	13654.46396
396.304	13730.19342
396.62	13732.29758
396.936	13736.50598
397.252	13872.23457
397.567	13882.75334
397.883	13805.95152
398.199	13735.45387
398.514	13729.14134
398.83	13808.05597
399.146	13775.43665
399.461	13730.19342
399.777	13622.92634
400.092	13655.51541
400.407	13664.97898
400.723	13253.27076
401.038	12921.63201
401.353	13012.44433
401.668	13016.5794
401.983	12854.75292
402.298	12905.15374
402.613	12670.43857
402.928	12530.00879
403.243	12590.97293
403.558	12569.61946
403.873	12722.5283
404.188	12760.38444
404.503	12679.62329
404.817	12588.93852
405.132	12681.66478
405.447	12870.17148
405.761	12785.99421
406.076	12711.28442
406.39	12810.60335
406.705	12941.21325
407.019	12965.96796
407.334	13040.36812
407.648	13010.37702
407.962	12797.27051
408.276	12822.91665
408.591	12810.60335
408.905	12705.15345
409.219	12939.15139
409.533	12960.80885
409.847	12877.36991
410.161	13008.30988
410.475	13175.20314
410.789	13176.24275
411.102	12956.68227
411.416	12877.36991
411.73	12936.0589
412.044	13003.1427
412.357	12968.03188
412.671	12957.71385
412.984	13000.04286
413.298	12872.22798
413.611	12820.86403
413.925	12845.50614
414.238	12721.50593
414.552	12710.26249
414.865	12683.70643
415.178	12548.28328
415.491	12511.74685
415.804	12526.96426
416.118	12532.03866
416.431	12434.77747
416.744	12367.10231
417.057	12451.97531
417.37	12346.93258
417.683	12163.02779
417.995	12121.97766
418.308	12111.97348
418.621	12237.25637
418.934	12130.98411
419.246	12200.11947
419.559	12538.12923
419.872	12711.28442
420.184	12920.60182
420.497	12869.1433
420.809	12865.03096
421.121	12688.81126
421.434	12572.6689
421.746	12713.3284
422.058	12603.18271
422.371	12345.92447
422.683	12238.2607
422.995	12100.97246
423.307	12066.99275
423.619	12161.0241
423.931	11923.4519
424.243	11902.56649
424.555	11953.30851
424.867	11730.92403
425.179	11663.64106
425.491	11757.66642
425.802	11705.18691
426.114	11520.46412
426.426	11466.24768
426.737	11575.71596
427.049	11609.28806
427.361	11470.18916
427.672	11424.87594
427.984	11316.62969
428.295	11307.77941
428.606	11398.29253
428.918	11256.66073
429.229	11310.72941
429.54	11298.92999
429.851	11061.23961
430.163	10894.45934
430.474	10754.20701
430.785	10929.77056
431.096	11104.42547
431.407	11119.15043
431.718	11086.75725
432.029	10735.5717
432.339	10702.2231
432.65	10930.75147
432.961	10948.40815
433.272	10956.25583
433.582	11099.51745
433.893	10986.66736
434.204	10871.90051
434.514	11004.32711
434.825	10993.5349
435.135	10914.07638
435.446	10926.82786
435.756	11073.99799
436.066	11086.75725
436.377	11129.94962
436.687	11277.30158
436.997	11111.29695
437.307	11117.18702
437.617	11178.06497
437.927	11050.44471
438.237	11160.38798
438.547	11138.78589
438.857	11115.22364
439.167	11367.78235
439.477	11302.86296
439.787	11228.16346
440.097	11260.592
440.407	11189.85097
440.716	11038.6691
441.026	10974.8948
441.336	11114.24196
441.645	10987.64843
441.955	10885.63188
442.264	10871.90051
442.574	11067.12799
442.883	11016.10095
443.192	10866.9965
443.502	11075.9609
443.811	10929.77056
444.12	10770.88041
444.429	10648.27216
444.739	10506.97509
445.048	10614.91684
445.357	10617.86009
445.666	10580.57671
445.975	10636.50007
446.284	10553.10144
446.593	10482.43576
446.901	10422.5466
447.21	10503.04899
447.519	10512.8641
447.828	10381.29954
448.136	10327.26935
448.445	10507.9566
448.754	10644.34817
449.062	10565.85819
449.371	10543.28811
449.679	10599.21901
449.988	10764.01492
450.296	11128.96784
450.605	11537.2315
450.913	11897.59547
451.221	12305.62944
451.529	12473.23474
451.838	12266.39597
452.146	11918.47814
452.454	11827.0751
452.762	11847.92023
453.07	11574.72885
453.378	11378.60717
453.686	11401.24577
453.994	11405.1836
454.302	11138.78589
454.609	10712.0317
454.917	10551.13881
455.225	10499.12282
455.533	10303.68642
455.84	10234.88014
456.148	10326.2868
456.455	10113.88892
456.763	10126.68226
457.07	10475.5642
457.378	10524.64163
457.685	10421.56465
457.993	10430.40205
458.3	10491.27026
458.607	10632.57595
458.915	10835.61137
459.222	10954.2939
459.529	10894.45934
459.836	10815.01518
460.143	10656.12
460.45	10464.76556
460.757	10530.53016
461.064	10593.3321
461.371	10522.67875
461.678	10585.4827
461.985	10778.72665
462.292	10996.47819
462.598	11236.02402
462.905	11577.69022
463.212	11872.74998
463.518	12100.97246
463.825	12354.99874
464.131	12737.86873
464.438	12815.73318
464.744	12326.77724
465.051	12013.0959
465.357	12115.97478
465.664	12149.00466
465.97	11677.48572
466.276	11435.70902
466.582	11409.12165
466.889	11292.04769
467.195	11612.2513
467.501	12215.16946
467.807	13048.64725
468.113	13818.57813
468.419	14387.0291
468.725	14754.88965
469.031	15141.6465
469.337	15411.46223
469.642	15132.94767
469.948	14654.0181
470.254	14644.03479
470.56	14254.55072
470.865	13442.41636
471.171	13100.44723
471.477	12846.5334
471.782	12303.61617
472.088	11922.4571
472.393	12028.05869
472.698	11704.1973
473.004	11335.31651
473.309	11570.78061
473.614	12007.1126
473.92	12348.94891
474.225	12456.02344
474.53	12403.4445
474.835	12243.2829
475.14	11995.14907
475.445	11710.13525
475.75	11281.23365
476.055	10937.61786
476.36	10756.1686
476.665	10372.45952
476.97	10056.79391
477.275	10108.96803
477.58	10247.66109
477.885	10340.04185
478.189	10177.84205
478.494	9910.97183
478.799	9782.72219
479.103	9851.79895
479.408	9852.78544
479.712	9854.75838
480.017	10038.0842
480.321	10265.35577
480.625	10443.1664
480.93	10579.5955
481.234	11051.42604
481.538	11543.15052
481.843	11715.08411
482.147	11830.05232
482.451	12036.04151
482.755	12375.17425
483.059	12487.41699
483.363	12493.49738
483.667	12746.054
483.971	12820.86403
484.275	12690.85347
484.579	12830.10209
484.883	12846.5334
485.187	12724.57317
485.49	12721.50593
485.794	12532.03866
486.098	12388.29615
486.401	12303.61617
486.705	12200.11947
487.009	12064.99504
487.312	12046.02267
487.616	12079.98085
487.919	11812.19221
488.222	11669.57401
488.526	11854.871
488.829	11952.3129
489.132	11991.16214
489.436	11805.24869
489.739	11743.79801
490.042	11934.39652
490.345	11907.53816
490.648	11880.69881
490.951	11840.97066
491.254	11866.78942
491.557	12138.99197
491.86	12351.97366
492.163	12620.48963
492.466	12907.21296
492.769	13359.74147
493.072	13626.07956
493.375	13715.46493
493.677	13930.07427
493.98	13842.77789
494.283	13528.39831
494.585	13215.77397
494.888	13007.27636
495.19	12834.20895
495.493	12741.96104
495.795	12497.55175
496.098	12238.2607
496.4	12086.97656
496.702	12009.10692
497.005	12097.97283
497.307	11991.16214
497.609	11898.58963
497.911	11889.64318
498.213	11744.78847
498.515	11643.86966
498.818	11727.95363
499.12	11810.20823
499.422	11736.86541
499.723	11695.29178
500.025	11702.21815
500.327	11581.63896
500.629	11644.85805
500.931	11829.05989
501.233	11745.77895
501.534	11684.40952
501.836	11645.84645
502.138	11741.81716
502.439	11905.54942
502.741	11922.4571
503.042	11887.65536
503.344	11842.95613
503.645	12033.04773
503.947	11935.39165
504.248	11945.34438
504.55	11962.27024
504.851	11816.16046
505.152	11916.48881
505.453	11933.40142
505.755	11952.3129
506.056	11747.75997
506.357	11654.74297
506.658	11723.99339
506.959	11690.34499
507.26	11802.27325
507.561	11779.46844
507.862	11672.54075
508.163	11749.74108
508.464	11741.81716
508.764	11687.37716
509.065	11590.52464
509.366	11610.27579
509.667	11701.22861
509.967	11658.69748
510.268	11611.26354
510.569	11600.39931
510.869	11478.07282
511.17	11345.15331
511.47	11354.99126
511.771	11414.0445
512.071	11474.13087
512.371	11454.42464
512.672	11403.21466
512.972	11400.26134
513.272	11351.05594
513.573	11214.40881
513.873	11301.8797
514.173	11342.20215
514.473	11235.04142
514.773	11240.93716
515.073	11226.19841
515.373	11202.62042
515.673	11034.74404
515.973	10924.86607
516.273	11042.59423
516.573	11031.80029
516.873	10860.13093
517.172	10922.90429
517.472	10895.44018
517.772	10766.95728
518.072	10809.13056
518.371	10838.5537
518.671	10792.45748
518.97	10839.53447
519.27	10891.51684
