Data from white_1_6_ST026791__121__22480.txt Node

Date: Tue Aug 19 16:20:16 AEST 2025
User: mathewyoussef
Spectrometer: ST02679
Trigger mode: 0
Integration Time (sec): 6.653700E-1
Scans to average: 1
Nonlinearity correction enabled: true
Boxcar width: 0
Storing dark spectrum: false
XAxis mode: Wavelengths
Number of Pixels in Spectrum: 1516
>>>>>Begin Spectral Data<<<<<
187.304	610.68958
187.653	626.57276
188.002	642.44061
188.351	606.45143
188.7	573.56701
189.048	582.05997
189.397	611.74894
189.746	627.63109
190.094	596.91145
190.443	595.8511
190.791	587.3657
191.14	594.79068
191.488	587.3657
191.837	588.42663
192.185	633.97964
192.533	612.80824
192.881	597.97173
193.229	606.45143
193.577	631.86373
193.925	625.51436
194.273	602.21215
194.621	594.79068
194.969	592.66961
195.317	605.39171
195.664	601.15215
196.012	604.33193
196.359	615.9857
196.707	606.45143
197.054	601.15215
197.402	596.91145
197.749	596.91145
198.096	608.57064
198.443	600.09208
198.791	579.93717
199.138	609.63015
199.485	638.21066
199.832	603.27207
200.179	580.99861
200.525	586.3047
200.872	585.24363
201.219	595.8511
201.566	622.33876
201.912	635.0375
202.259	608.57064
202.605	577.81408
202.952	606.45143
203.298	606.45143
203.644	600.09208
203.991	593.73018
204.337	603.27207
204.683	608.57064
205.029	588.42663
205.375	577.81408
205.721	586.3047
206.067	619.16254
206.413	633.97964
206.759	635.0375
207.104	583.12126
207.45	607.51107
207.796	645.61237
208.141	622.33876
208.487	657.23708
208.832	639.26825
209.177	584.18248
209.523	610.68958
209.868	627.63109
210.213	576.75242
210.558	568.25651
210.903	592.66961
211.248	602.21215
211.593	602.21215
211.938	611.74894
212.283	625.51436
212.628	627.63109
212.973	594.79068
213.317	564.00676
213.662	570.38093
214.007	608.57064
214.351	648.78353
214.696	646.66949
215.04	614.92662
215.384	609.63015
215.729	592.66961
216.073	579.93717
216.417	605.39171
216.761	588.42663
217.105	612.80824
217.449	626.57276
217.793	623.39736
218.137	632.92172
218.481	637.15301
218.824	630.80567
219.168	610.68958
219.512	603.27207
219.855	602.21215
220.199	586.3047
220.542	574.62889
220.886	648.78353
221.229	650.89731
221.572	592.66961
221.916	612.80824
222.259	626.57276
222.602	629.74755
222.945	613.86746
223.288	599.03194
223.631	608.57064
223.974	591.60898
224.317	592.66961
224.659	628.68935
225.002	638.21066
225.345	612.80824
225.687	601.15215
226.03	632.92172
226.372	622.33876
226.715	591.60898
227.057	579.93717
227.4	612.80824
227.742	645.61237
228.084	599.03194
228.426	575.69069
228.768	596.91145
229.11	599.03194
229.452	614.92662
229.794	622.33876
230.136	603.27207
230.478	607.51107
230.82	592.66961
231.161	589.48748
231.503	656.18062
231.845	674.13176
232.186	666.74236
232.528	648.78353
232.869	570.38093
233.21	561.88144
233.552	595.8511
233.893	588.42663
234.234	575.69069
234.575	620.22135
234.916	635.0375
235.257	600.09208
235.598	623.39736
235.939	629.74755
236.28	594.79068
236.621	550.18675
236.961	589.48748
237.302	637.15301
237.643	605.39171
237.983	608.57064
238.324	613.86746
238.664	619.16254
239.005	603.27207
239.345	582.05997
239.685	612.80824
240.025	609.63015
240.366	590.54827
240.706	647.72654
241.046	656.18062
241.386	593.73018
241.726	585.24363
242.066	578.87566
242.405	568.25651
242.745	600.09208
243.085	599.03194
243.425	596.91145
243.764	621.28009
244.104	677.2977
244.443	649.84046
244.783	571.44303
245.122	589.48748
245.461	590.54827
245.801	603.27207
246.14	597.97173
246.479	566.13178
246.818	571.44303
247.157	607.51107
247.496	601.15215
247.835	576.75242
248.174	601.15215
248.513	618.10366
248.852	682.573
249.19	650.89731
249.529	591.60898
249.868	615.9857
250.206	609.63015
250.545	594.79068
250.883	588.42663
251.221	572.50506
251.56	562.94414
251.898	570.38093
252.236	596.91145
252.574	617.04472
252.912	604.33193
253.25	571.44303
253.588	551.25029
253.926	612.80824
254.264	644.55518
254.602	593.73018
254.94	588.42663
255.278	583.12126
255.615	554.44043
255.953	560.81866
256.29	610.68958
256.628	622.33876
256.965	607.51107
257.303	596.91145
257.64	603.27207
257.977	609.63015
258.314	583.12126
258.652	572.50506
258.989	588.42663
259.326	620.22135
259.663	596.91145
260	580.99861
260.337	583.12126
260.673	582.05997
261.01	600.09208
261.347	607.51107
261.684	590.54827
262.02	593.73018
262.357	609.63015
262.693	608.57064
263.03	593.73018
263.366	599.03194
263.702	611.74894
264.039	595.8511
264.375	574.62889
264.711	587.3657
265.047	586.3047
265.383	569.31875
265.719	601.15215
266.055	631.86373
266.391	647.72654
266.727	605.39171
267.063	571.44303
267.399	578.87566
267.734	627.63109
268.07	623.39736
268.405	603.27207
268.741	627.63109
269.076	580.99861
269.412	580.99861
269.747	608.57064
270.082	571.44303
270.418	551.25029
270.753	609.63015
271.088	619.16254
271.423	606.45143
271.758	601.15215
272.093	587.3657
272.428	615.9857
272.763	630.80567
273.098	601.15215
273.433	582.05997
273.767	601.15215
274.102	618.10366
274.436	625.51436
274.771	590.54827
275.106	567.19418
275.44	571.44303
275.774	610.68958
276.109	608.57064
276.443	588.42663
276.777	595.8511
277.111	608.57064
277.445	621.28009
277.78	610.68958
278.114	629.74755
278.447	609.63015
278.781	578.87566
279.115	595.8511
279.449	590.54827
279.783	601.15215
280.116	627.63109
280.45	607.51107
280.784	639.26825
281.117	667.79818
281.451	636.09528
281.784	736.29405
282.117	737.34586
282.451	617.04472
282.784	629.74755
283.117	663.57452
283.45	691.01024
283.783	678.35288
284.116	667.79818
284.449	694.17318
284.782	709.97967
285.115	731.03409
285.448	714.19244
285.781	693.11893
286.114	683.62787
286.446	723.66772
286.779	820.26583
287.111	805.59527
287.444	735.24217
287.776	733.13825
288.109	798.25622
288.441	789.8656
288.773	767.82403
289.106	884.07531
289.438	892.43082
289.77	870.49136
290.102	934.16602
290.434	942.50484
290.766	1063.13583
291.098	1108.7664
291.43	1088.03319
291.762	1101.51126
292.094	1132.59378
292.425	1145.01893
292.757	1127.41533
293.089	1234.97564
293.42	1214.31469
293.752	1192.60893
294.083	1306.17654
294.414	1359.75932
294.746	1387.55721
295.077	1448.24736
295.408	1461.61035
295.74	1560.19283
296.071	1635.04906
296.402	1639.14826
296.733	1662.71374
297.064	1688.31908
297.395	1789.62515
297.726	1845.84639
298.056	1904.06901
298.387	1946.94267
298.718	2005.09225
299.049	2054.02866
299.379	2068.29638
299.71	2133.48951
300.04	2180.31608
300.371	2259.65863
300.701	2316.5767
301.031	2392.7459
301.362	2431.31172
301.692	2492.16836
302.022	2604.63266
302.352	2651.19287
302.682	2663.33445
303.012	2685.5891
303.342	2775.5535
303.672	2857.33808
304.002	3074.98351
304.332	3110.18759
304.662	3020.6341
304.992	3137.33293
305.321	3200.63085
305.651	3221.71728
305.98	3337.07583
306.31	3429.2224
306.639	3415.20815
306.969	3523.24333
307.298	3588.18194
307.628	3574.20038
307.957	3694.94698
308.286	3769.68423
308.615	3770.68018
308.944	3851.3061
309.273	4009.31025
309.602	4134.28538
309.931	4211.55195
310.26	4234.32179
310.589	4295.67082
310.918	4409.35047
311.247	4582.08329
311.575	4637.29836
311.904	4612.6521
312.233	4759.46971
312.561	4825.43466
312.89	4833.30906
313.218	5023.16597
313.546	5061.5081
313.875	4938.59157
314.203	4993.66739
314.531	5076.25337
314.859	5130.31199
315.188	5273.76746
315.516	5398.51919
315.844	5466.29169
316.172	5542.90405
316.5	5623.44988
316.827	5615.59141
317.155	5634.25544
317.483	5777.69684
317.811	5774.74891
318.138	5914.31563
318.466	6111.02536
318.794	6025.43397
319.121	5974.29306
319.449	6157.28059
319.776	6302.03233
320.103	6259.67666
320.431	6317.79552
320.758	6461.71188
321.085	6568.26477
321.412	6614.66116
321.739	6500.1798
322.066	6497.22035
322.393	6666.01223
322.72	6768.77486
323.047	6762.84404
323.374	6860.73746
323.701	6995.33824
324.028	6994.34802
324.354	7122.14758
324.681	7238.16307
325.008	7359.237
325.334	7455.56943
325.661	7461.53003
325.987	7456.56284
326.314	7449.60904
326.64	7412.85815
326.966	7459.54314
327.293	7630.49851
327.619	7697.13324
327.945	7733.94042
328.271	7804.58667
328.597	7812.54806
328.923	7865.29818
329.249	7966.84285
329.575	7886.20184
329.901	7938.96483
330.227	7991.73565
330.552	7940.95605
330.878	7992.73139
331.204	8046.50482
331.529	8117.2152
331.855	8251.68023
332.18	8319.41307
332.506	8275.58601
332.831	8208.84932
333.156	8369.21542
333.482	8584.32109
333.807	8601.24623
334.132	8616.17947
334.457	8531.54937
334.782	8552.45979
335.107	8709.74386
335.432	8735.61752
335.757	8748.5533
336.082	8796.30978
336.407	8781.387
336.732	8842.0663
337.057	8977.28093
337.381	9014.0485
337.706	9038.88653
338.031	9011.06767
338.355	8986.22518
338.68	9085.57084
339.004	9069.67998
339.329	9086.56396
339.653	9202.70978
339.977	9218.58508
340.301	9282.0663
340.626	9422.79566
340.95	9418.83379
341.274	9453.49538
341.598	9550.49011
341.922	9577.19794
342.246	9550.49011
342.57	9561.37188
342.894	9760.01565
343.218	9877.44456
343.541	9796.54116
343.865	9839.96043
344.189	9941.5317
344.512	9963.21412
344.836	10134.5544
345.159	10192.59573
345.483	10090.2668
345.806	10065.65532
346.13	10340.04185
346.453	10419.60072
346.776	10255.52568
347.099	10463.78383
347.423	10430.40205
347.746	10254.54263
348.069	10485.38063
348.392	10532.49296
348.715	10411.74478
349.038	10558.98925
349.361	10558.00796
349.683	10574.6894
350.006	10737.53333
350.329	10817.95748
350.652	10800.30365
350.974	10822.86133
351.297	10891.51684
351.619	10984.70523
351.942	11169.22618
352.264	11199.6735
352.587	11147.62271
352.909	11127.98607
353.231	11055.35141
353.554	11116.20533
353.876	11338.26743
354.198	11408.13712
354.52	11375.6548
354.842	11382.54384
355.164	11479.05834
355.486	11410.10619
355.808	11330.39854
356.13	11429.79986
356.452	11485.95743
356.773	11529.34038
357.095	11497.78616
357.417	11382.54384
357.738	11355.97511
358.06	11593.48685
358.381	11685.39871
358.703	11554.00362
359.024	11435.70902
359.346	11513.56125
359.667	11635.96326
359.988	11543.15052
360.309	11615.21471
360.631	11646.83488
360.952	11658.69748
361.273	11717.0638
361.594	11778.4772
361.915	11972.23032
362.236	12184.07434
362.557	12356.00717
362.878	12269.41206
363.198	12086.97656
363.519	11997.14271
363.84	12112.97376
364.16	12255.33964
364.481	12250.3154
364.802	12155.0138
365.122	12264.38542
365.443	12338.86873
365.763	12177.05723
366.083	12133.98682
366.404	12081.97947
366.724	12115.97478
367.044	12084.97763
367.364	12015.09056
367.685	11989.16884
368.005	11954.30415
368.325	12111.97348
368.645	12256.34459
368.965	12188.08483
369.284	12037.03949
369.604	12042.02986
369.924	12211.15539
370.244	12379.2111
370.564	12365.08468
370.883	12377.19261
371.203	12458.04773
371.522	12531.02371
371.842	12810.60335
372.161	12833.18217
372.481	12581.81932
372.8	12612.34377
373.119	12715.37254
373.439	12853.72534
373.758	12907.21296
374.077	12783.9445
374.396	12718.43906
374.715	12646.98123
375.034	12371.13799
375.353	11915.49419
375.672	11532.29943
375.991	10954.2939
376.31	10436.2934
376.629	10313.51311
376.948	10564.87692
377.266	10960.17974
377.585	11247.81594
377.904	11684.40952
378.222	12169.03963
378.541	12642.90385
378.859	13021.74911
379.178	13171.04508
379.496	13088.00659
379.814	12805.47452
380.133	12662.2771
380.451	12664.31723
380.769	12534.0687
381.087	12470.19665
381.405	12347.94073
381.723	12323.75517
382.041	12351.97366
382.359	12443.88086
382.677	12493.49738
382.995	12701.06693
383.313	12816.75927
383.631	12625.58208
383.949	12762.43229
384.266	12937.08969
384.584	12870.17148
384.901	12759.36058
385.219	12806.50021
385.537	12896.91844
385.854	12857.83591
386.171	12823.94302
386.489	13002.10938
386.806	12942.24424
387.123	12944.30634
387.441	12937.08969
387.758	12789.06908
388.075	12666.35752
388.392	12544.22119
388.709	12538.12923
389.026	12559.45723
389.343	12667.37772
389.66	12840.37045
389.977	12855.78054
390.294	12842.4246
390.61	13022.78317
390.927	13095.26297
391.244	12897.94771
391.56	12866.05898
391.877	12943.27527
392.193	12858.86365
392.51	12890.74366
392.826	12853.72534
393.143	12751.17111
393.459	12741.96104
393.775	12867.08705
394.092	12954.61921
394.408	12884.57032
394.724	13018.64717
395.04	13138.83971
395.356	13120.15594
395.672	13372.28843
395.988	13542.0432
396.304	13534.69553
396.62	13529.44779
396.936	13716.51692
397.252	13919.56074
397.567	13883.80517
397.883	13987.86838
398.199	13926.92036
398.514	13717.56892
398.83	13807.00374
399.146	13744.923
399.461	13757.54903
399.777	13825.94349
400.092	13598.75606
400.407	13594.55338
400.723	13505.31495
401.038	13035.19492
401.353	12881.48419
401.668	13002.10938
401.983	12974.2246
402.298	12807.52593
402.613	12662.2771
402.928	12653.0985
403.243	12604.20045
403.558	12781.89495
403.873	12900.00638
404.188	12710.26249
404.503	12610.3077
404.817	12717.41684
405.132	12710.26249
405.447	12644.94246
405.761	12797.27051
406.076	12761.40835
406.39	12667.37772
406.705	12848.58803
407.019	13006.24289
407.334	13037.26408
407.648	12969.06391
407.962	12796.24519
408.276	12844.47892
408.591	12928.84448
408.905	12987.64703
409.219	13238.68344
409.533	13101.48419
409.847	12926.78357
410.161	13079.71585
410.475	13224.10276
410.789	13316.90511
411.102	13165.84831
411.416	13021.74911
411.73	13175.20314
412.044	13264.73684
412.357	13117.04314
412.671	13014.51178
412.984	12997.97649
413.298	12910.3021
413.611	12814.70713
413.925	12912.36172
414.238	12812.65516
414.552	12727.64077
414.865	12856.80821
415.178	12781.89495
415.491	12471.20931
415.804	12348.94891
416.118	12360.04126
416.431	12185.07691
416.744	12265.39068
417.057	12415.56916
417.37	12357.01564
417.683	12268.40666
417.995	12225.20695
418.308	12248.30595
418.621	12361.04987
418.934	12144.9992
419.246	12215.16946
419.559	12488.43029
419.872	12608.27179
420.184	12860.91926
420.497	12965.96796
420.809	13043.47251
421.121	12793.16947
421.434	12545.23665
421.746	12636.78897
422.058	12614.38
422.371	12391.32516
422.683	12207.14187
422.995	12000.13338
423.307	11990.16547
423.619	12071.98757
423.931	12018.08277
424.243	11981.19677
424.555	11880.69881
424.867	11770.54812
425.179	11697.27064
425.491	11725.97347
425.802	11662.6523
426.114	11569.79359
426.426	11553.01689
426.737	11588.54992
427.049	11666.60744
427.361	11659.68616
427.672	11520.46412
427.984	11262.55769
428.295	11354.99126
428.606	11434.72412
428.918	11313.6795
429.229	11343.18586
429.54	11175.11864
429.851	10956.25583
430.163	10782.64975
430.474	10816.97671
430.785	11127.00431
431.096	11108.35199
431.407	10979.79998
431.718	10967.04669
432.029	10820.89979
432.339	10866.9965
432.65	11017.08213
432.961	10897.40185
433.272	10940.56064
433.582	11113.26028
433.893	10981.76207
434.204	10904.26777
434.514	10955.27486
434.825	10884.65106
435.135	10788.5344
435.446	10974.8948
435.756	11142.7133
436.066	11122.09559
436.377	11179.04709
436.687	11186.90437
436.997	11061.23961
437.307	11042.59423
437.617	11211.4616
437.927	11132.89498
438.237	11114.24196
438.547	11165.29802
438.857	11100.49904
439.167	11297.94677
439.477	11270.42082
439.787	11258.62635
440.097	11280.25062
440.407	11121.11386
440.716	11064.18377
441.026	11132.89498
441.336	11167.26208
441.645	10958.21778
441.955	10846.39992
442.264	11069.09082
442.574	11269.4379
442.883	10988.6295
443.192	10855.22698
443.502	11054.37006
443.811	10958.21778
444.12	10814.03441
444.429	10647.29117
444.739	10696.33785
445.048	10902.30607
445.357	10658.08194
445.666	10563.89565
445.975	10594.31326
446.284	10544.26946
446.593	10470.6558
446.901	10323.33913
447.21	10476.54587
447.519	10351.83089
447.828	10342.00676
448.136	10447.0937
448.445	10566.83945
448.754	10602.16241
449.062	10470.6558
449.371	10591.36977
449.679	10697.31873
449.988	10865.0349
450.296	11180.02923
450.605	11520.46412
450.913	11811.20021
451.221	12097.97283
451.529	12437.8116
451.838	12440.84606
452.146	11935.39165
452.454	11837.00002
452.762	11896.60135
453.07	11439.64873
453.378	11198.69121
453.686	11195.7444
453.994	11226.19841
454.302	11101.48064
454.609	10696.33785
454.917	10505.01205
455.225	10445.13006
455.533	10400.94227
455.84	10336.11197
456.148	10412.7268
456.455	10224.06452
456.763	10141.4421
457.07	10411.74478
457.378	10518.75294
457.685	10482.43576
457.993	10375.40625
458.3	10459.85688
458.607	10528.56733
458.915	10568.80196
459.222	10739.49496
459.529	10811.0921
459.836	10901.32523
460.143	10716.93594
460.45	10340.04185
460.757	10345.93649
461.064	10483.41739
461.371	10517.77148
461.678	10493.23343
461.985	10666.91053
462.292	10938.59879
462.598	11331.38211
462.905	11652.76583
463.212	11751.72228
463.518	11917.48346
463.825	12171.04383
464.131	12682.68558
464.438	12814.70713
464.744	12465.13394
465.051	12195.10446
465.357	12252.32499
465.664	12204.13207
465.97	11716.07395
466.276	11461.32116
466.582	11382.54384
466.889	11505.6732
467.195	11823.10581
467.501	12236.25206
467.807	13103.55823
468.113	13817.52593
468.419	14336.46481
468.725	14784.19609
469.031	15148.57991
469.337	15255.39339
469.642	14992.97722
469.948	14666.97268
470.254	14517.00774
470.56	14010.96845
470.865	13330.48183
471.171	13180.40153
471.477	12797.27051
471.782	12179.06195
472.088	11880.69881
472.393	11916.48881
472.698	11742.80757
473.004	11378.60717
473.309	11492.85725
473.614	11949.32623
473.92	12346.93258
474.225	12444.89253
474.53	12269.41206
474.835	12152.00909
475.14	11941.36296
475.445	11704.1973
475.75	11407.1526
476.055	11080.86825
476.36	10845.41914
476.665	10395.0497
476.97	10022.32626
477.275	10093.21982
477.58	10215.2147
477.885	10253.55958
478.189	10049.90122
478.494	9897.16776
478.799	9875.47204
479.103	9811.34519
479.408	9856.73128
479.712	9994.74453
480.017	10028.23575
480.321	10166.03785
480.625	10368.53047
480.93	10550.15749
481.234	11090.68337
481.538	11572.7547
481.843	11838.98529
482.147	12020.07772
482.451	12224.20305
482.755	12543.20577
483.059	12483.36415
483.363	12474.24751
483.667	12756.28922
483.971	12684.72731
484.275	12452.98729
484.579	12653.0985
484.883	12910.3021
485.187	12808.5517
485.49	12757.31297
485.794	12591.9902
486.098	12432.75491
486.401	12325.76984
486.705	12196.1074
487.009	12118.97608
487.312	12117.97562
487.616	12186.07952
487.919	11974.22267
488.222	11827.0751
488.526	11817.15258
488.829	11847.92023
489.132	11866.78942
489.436	11711.12498
489.739	11771.53917
490.042	11943.35362
490.345	11924.44673
490.648	11811.20021
490.951	11794.33976
491.254	12038.03751
491.557	12247.30127
491.86	12292.54573
492.163	12606.23604
492.466	12924.72283
492.769	13254.31297
493.072	13488.53371
493.375	13711.25703
493.677	13899.58134
493.98	13816.47372
494.283	13653.41252
494.585	13337.79453
494.888	13097.33656
495.19	12950.49359
495.493	12729.68604
495.795	12389.30578
496.098	12193.09869
496.4	12050.01596
496.702	11916.48881
497.005	12095.97324
497.307	12092.97407
497.609	11761.62961
497.911	11762.62047
498.213	11928.42633
498.515	11843.9489
498.818	11692.32365
499.12	11730.92403
499.422	11750.73167
499.723	11738.84604
500.025	11780.4597
500.327	11709.14554
500.629	11781.45099
500.931	11884.67383
501.233	11774.51248
501.534	11644.85805
501.836	11676.49668
502.138	11863.80948
502.439	11812.19221
502.741	11680.45294
503.042	11779.46844
503.344	11763.61135
503.645	11827.0751
503.947	11978.2077
504.248	11976.21513
504.55	11928.42633
504.851	11992.15883
505.152	12058.00397
505.453	11889.64318
505.755	11911.51597
506.056	11969.24201
506.357	11827.0751
506.658	11807.23244
506.959	11791.36508
507.26	11780.4597
507.561	11703.20772
507.862	11687.37716
508.163	11763.61135
508.464	11608.30035
508.764	11561.89806
509.065	11612.2513
509.366	11733.89462
509.667	11782.44229
509.967	11639.91631
510.268	11538.21796
510.569	11512.57519
510.869	11547.09687
511.17	11480.04388
511.47	11449.49898
511.771	11315.64628
512.071	11350.07214
512.371	11411.09075
512.672	11401.24577
512.972	11434.72412
513.272	11243.88515
513.573	11118.16872
513.873	11237.98925
514.173	11186.90437
514.473	11230.12855
514.773	11241.91982
515.073	11171.1903
515.373	11316.62969
515.673	11180.02923
515.973	10997.45929
516.273	11117.18702
516.573	11094.60957
516.873	10862.09252
517.172	10944.48438
517.472	10959.19876
517.772	10883.67024
518.072	10917.019
518.371	10797.36134
518.671	10741.45658
518.97	10808.1498
519.27	10811.0921
