Data from white_1_6_ST026791__149__22508.txt Node

Date: Tue Aug 19 16:20:54 AEST 2025
User: mathewyoussef
Spectrometer: ST02679
Trigger mode: 0
Integration Time (sec): 6.653700E-1
Scans to average: 1
Nonlinearity correction enabled: true
Boxcar width: 0
Storing dark spectrum: false
XAxis mode: Wavelengths
Number of Pixels in Spectrum: 1516
>>>>>Begin Spectral Data<<<<<
187.304	603.27207
187.653	645.61237
188.002	653.01083
188.351	593.73018
188.7	579.93717
189.048	591.60898
189.397	635.0375
189.746	639.26825
190.094	615.9857
190.443	613.86746
190.791	603.27207
191.14	602.21215
191.488	579.93717
191.837	592.66961
192.185	608.57064
192.533	600.09208
192.881	623.39736
193.229	620.22135
193.577	620.22135
193.925	645.61237
194.273	663.57452
194.621	650.89731
194.969	586.3047
195.317	573.56701
195.664	617.04472
196.012	610.68958
196.359	588.42663
196.707	571.44303
197.054	566.13178
197.402	584.18248
197.749	589.48748
198.096	602.21215
198.443	622.33876
198.791	624.4559
199.138	610.68958
199.485	611.74894
199.832	604.33193
200.179	586.3047
200.525	574.62889
200.872	569.31875
201.219	594.79068
201.566	617.04472
201.912	620.22135
202.259	611.74894
202.605	590.54827
202.952	578.87566
203.298	583.12126
203.644	595.8511
203.991	625.51436
204.337	633.97964
204.683	584.18248
205.029	561.88144
205.375	594.79068
205.721	646.66949
206.067	637.15301
206.413	587.3657
206.759	592.66961
207.104	584.18248
207.45	570.38093
207.796	589.48748
208.141	580.99861
208.487	585.24363
208.832	597.97173
209.177	579.93717
209.523	562.94414
209.868	558.69289
210.213	602.21215
210.558	617.04472
210.903	620.22135
211.248	628.68935
211.593	600.09208
211.938	610.68958
212.283	640.32577
212.628	621.28009
212.973	605.39171
213.317	603.27207
213.662	604.33193
214.007	587.3657
214.351	553.37712
214.696	582.05997
215.04	606.45143
215.384	594.79068
215.729	610.68958
216.073	601.15215
216.417	610.68958
216.761	619.16254
217.105	619.16254
217.449	605.39171
217.793	589.48748
218.137	593.73018
218.481	614.92662
218.824	639.26825
219.168	609.63015
219.512	597.97173
219.855	596.91145
220.199	587.3657
220.542	588.42663
220.886	602.21215
221.229	614.92662
221.572	614.92662
221.916	614.92662
222.259	612.80824
222.602	621.28009
222.945	628.68935
223.288	608.57064
223.631	592.66961
223.974	586.3047
224.317	597.97173
224.659	615.9857
225.002	608.57064
225.345	594.79068
225.687	603.27207
226.03	602.21215
226.372	610.68958
226.715	624.4559
227.057	621.28009
227.4	603.27207
227.742	605.39171
228.084	605.39171
228.426	597.97173
228.768	607.51107
229.11	578.87566
229.452	570.38093
229.794	609.63015
230.136	600.09208
230.478	578.87566
230.82	593.73018
231.161	593.73018
231.503	644.55518
231.845	654.06749
232.186	678.35288
232.528	677.2977
232.869	590.54827
233.21	607.51107
233.552	609.63015
233.893	582.05997
234.234	595.8511
234.575	615.9857
234.916	632.92172
235.257	615.9857
235.598	618.10366
235.939	621.28009
236.28	583.12126
236.621	600.09208
236.961	653.01083
237.302	647.72654
237.643	642.44061
237.983	649.84046
238.324	627.63109
238.664	637.15301
239.005	611.74894
239.345	585.24363
239.685	625.51436
240.025	650.89731
240.366	615.9857
240.706	595.8511
241.046	604.33193
241.386	614.92662
241.726	615.9857
242.066	586.3047
242.405	569.31875
242.745	636.09528
243.085	645.61237
243.425	605.39171
243.764	631.86373
244.104	701.55124
244.443	691.01024
244.783	605.39171
245.122	578.87566
245.461	575.69069
245.801	603.27207
246.14	623.39736
246.479	625.51436
246.818	613.86746
247.157	664.63053
247.496	675.18714
247.835	612.80824
248.174	590.54827
248.513	587.3657
248.852	665.68648
249.19	672.02082
249.529	618.10366
249.868	629.74755
250.206	643.49793
250.545	615.9857
250.883	571.44303
251.221	585.24363
251.56	618.10366
251.898	607.51107
252.236	617.04472
252.574	607.51107
252.912	585.24363
253.25	603.27207
253.588	599.03194
253.926	610.68958
254.264	621.28009
254.602	577.81408
254.94	573.56701
255.278	588.42663
255.615	591.60898
255.953	603.27207
256.29	603.27207
256.628	604.33193
256.965	590.54827
257.303	602.21215
257.64	646.66949
257.977	618.10366
258.314	597.97173
258.652	639.26825
258.989	653.01083
259.326	621.28009
259.663	588.42663
260	596.91145
260.337	604.33193
260.673	592.66961
261.01	571.44303
261.347	578.87566
261.684	586.3047
262.02	627.63109
262.357	651.95411
262.693	613.86746
263.03	596.91145
263.366	586.3047
263.702	583.12126
264.039	585.24363
264.375	561.88144
264.711	569.31875
265.047	589.48748
265.383	606.45143
265.719	591.60898
266.055	602.21215
266.391	665.68648
266.727	655.12409
267.063	618.10366
267.399	602.21215
267.734	604.33193
268.07	620.22135
268.405	643.49793
268.741	635.0375
269.076	613.86746
269.412	625.51436
269.747	630.80567
270.082	607.51107
270.418	597.97173
270.753	603.27207
271.088	607.51107
271.423	608.57064
271.758	606.45143
272.093	615.9857
272.428	607.51107
272.763	595.8511
273.098	608.57064
273.433	615.9857
273.767	631.86373
274.102	621.28009
274.436	583.12126
274.771	590.54827
275.106	575.69069
275.44	570.38093
275.774	601.15215
276.109	604.33193
276.443	573.56701
276.777	578.87566
277.111	622.33876
277.445	625.51436
277.78	600.09208
278.114	614.92662
278.447	619.16254
278.781	597.97173
279.115	609.63015
279.449	605.39171
279.783	614.92662
280.116	596.91145
280.45	600.09208
280.784	628.68935
281.117	660.40609
281.451	664.63053
281.784	724.72023
282.117	719.45707
282.451	637.15301
282.784	628.68935
283.117	649.84046
283.45	716.29847
283.783	659.34982
284.116	651.95411
284.449	697.33557
284.782	719.45707
285.115	777.27332
285.448	757.31963
285.781	711.03295
286.114	703.65871
286.446	720.50982
286.779	851.66981
287.111	829.69168
287.444	692.06461
287.776	752.06534
288.109	849.57758
288.441	820.26583
288.773	828.64456
289.106	916.43705
289.438	861.0825
289.77	880.94124
290.102	964.38168
290.434	946.67325
290.766	1043.41141
291.098	1057.94641
291.43	1046.52664
291.762	1106.69367
292.094	1099.43807
292.425	1149.15967
292.757	1137.77146
293.089	1155.36988
293.42	1226.71255
293.752	1216.38127
294.083	1316.48579
294.414	1376.23406
294.746	1396.81969
295.077	1465.72137
295.408	1516.05686
295.74	1657.59151
296.071	1690.3671
296.402	1657.59151
296.733	1681.15055
297.064	1685.24695
297.395	1724.15069
297.726	1788.60256
298.056	1891.81518
298.387	1981.63334
298.718	2076.44828
299.049	2206.77184
299.379	2175.22749
299.71	2160.9778
300.04	2223.04821
300.371	2278.97442
300.701	2269.82539
301.031	2384.6245
301.362	2556.01882
301.692	2569.188
302.022	2552.97947
302.352	2619.81837
302.682	2695.70273
303.012	2671.42779
303.342	2767.47116
303.672	2895.67507
304.002	2931.97578
304.332	3019.62723
304.662	3096.10808
304.992	3129.29097
305.321	3219.70933
305.651	3312.01443
305.98	3389.17401
306.31	3448.23712
306.639	3481.25005
306.969	3528.2408
307.298	3620.12906
307.628	3663.0346
307.957	3678.99263
308.286	3774.66387
308.615	3882.13882
308.944	4002.3612
309.273	4102.56472
309.602	4123.38284
309.931	4203.63054
310.26	4269.94916
310.589	4361.91889
310.918	4438.98305
311.247	4600.82
311.575	4668.838
311.904	4674.75076
312.233	4842.16726
312.561	4835.27759
312.89	4858.89804
313.218	5098.86107
313.546	5163.72477
313.875	5044.79567
314.203	5122.4496
314.531	5171.58608
314.859	5186.32551
315.188	5266.89065
315.516	5322.88494
315.844	5419.14581
316.172	5585.14059
316.5	5685.33899
316.827	5718.74261
317.155	5852.38684
317.483	5965.44296
317.811	5967.40962
318.138	5978.22655
318.466	6055.92778
318.794	6081.50683
319.121	6127.75461
319.449	6220.28611
319.776	6227.17877
320.103	6268.54086
320.431	6395.65045
320.758	6474.53334
321.085	6456.78087
321.412	6546.55282
321.739	6674.90195
322.066	6699.59879
322.393	6770.75186
322.72	6768.77486
323.047	6814.25355
323.374	6957.71516
323.701	7010.19243
324.028	7061.69993
324.354	7078.54326
324.681	7123.13875
325.008	7302.65729
325.334	7388.03125
325.661	7465.50388
325.987	7608.62325
326.314	7527.11057
326.64	7542.0187
326.966	7764.78344
327.293	7763.78844
327.619	7666.29958
327.945	7730.95583
328.271	7751.84878
328.597	7717.02826
328.923	7757.81854
329.249	7829.46681
329.575	7863.30743
329.901	7868.28433
330.227	8014.63833
330.552	8088.33252
330.878	8024.59638
331.204	8158.05117
331.529	8112.23534
331.855	8137.13495
332.18	8372.2035
332.506	8316.42488
332.831	8267.61741
333.156	8422.0034
333.482	8566.39945
333.807	8536.52814
334.132	8595.27275
334.457	8653.01171
334.782	8564.4081
335.107	8651.02089
335.432	8662.96557
335.757	8802.2786
336.082	9025.97126
336.407	9035.90618
336.732	9027.9583
337.057	9042.86024
337.381	9125.29022
337.706	9073.65286
338.031	8967.3423
338.355	9093.51561
338.68	9191.79438
339.004	9018.02286
339.329	9152.09437
339.653	9332.62935
339.977	9158.05013
340.301	9171.94587
340.626	9357.4073
340.95	9429.72859
341.274	9466.36695
341.598	9438.64173
341.922	9482.20683
342.246	9574.23073
342.57	9701.74602
342.894	9837.00059
343.218	9812.33205
343.541	9917.8732
343.865	9977.99513
344.189	10051.8706
344.512	10089.28244
344.836	10107.98383
345.159	10089.28244
345.483	10097.15707
345.806	10147.34553
346.13	10204.39744
346.453	10301.721
346.776	10240.77919
347.099	10341.02431
347.423	10289.92791
347.746	10227.99758
348.069	10499.12282
348.392	10611.97356
348.715	10451.02093
349.038	10613.93575
349.361	10741.45658
349.683	10680.64352
350.006	10641.40516
350.329	10711.05085
350.652	10827.76519
350.974	10843.45758
351.297	10952.33197
351.619	10973.91378
351.942	11091.66491
352.264	11094.60957
352.587	11060.25823
352.909	11211.4616
353.231	11181.01137
353.554	11149.58652
353.876	11259.60917
354.198	11393.37071
354.52	11391.40208
354.842	11357.94287
355.164	11442.60366
355.486	11519.47795
355.808	11482.015
356.13	11505.6732
356.452	11693.313
356.773	11545.12366
357.095	11386.48071
357.417	11478.07282
357.738	11407.1526
358.06	11525.39522
358.381	11631.02238
358.703	11545.12366
359.024	11484.9718
359.346	11559.92435
359.667	11826.08274
359.988	11827.0751
360.309	11781.45099
360.631	11882.68627
360.952	11908.53258
361.273	11913.50503
361.594	12037.03949
361.915	12137.99088
362.236	12045.02443
362.557	12287.51511
362.878	12437.8116
363.198	12084.97763
363.519	12021.07524
363.84	12148.00325
364.16	12178.05957
364.481	12160.0223
364.802	12149.00466
365.122	12277.45647
365.443	12135.98879
365.763	12020.07772
366.083	12254.33472
366.404	12141.99545
366.724	12074.98482
367.044	12161.0241
367.364	12055.00824
367.685	11979.20403
368.005	11918.47814
368.325	11895.60725
368.645	11855.86406
368.965	11942.35828
369.284	12030.05422
369.604	12098.97268
369.924	12224.20305
370.244	12347.94073
370.564	12531.02371
370.883	12530.00879
371.203	12466.14641
371.522	12566.57038
371.842	12879.42697
372.161	12929.87499
372.481	12660.23713
372.8	12681.66478
373.119	12713.3284
373.439	12771.64963
373.758	12821.89032
374.077	12753.21823
374.396	12742.98422
374.715	12711.28442
375.034	12466.14641
375.353	12044.02621
375.672	11618.17829
375.991	11054.37006
376.31	10714.97425
376.629	10466.72899
376.948	10563.89565
377.266	10978.81894
377.585	11164.31599
377.904	11643.86966
378.222	12289.52725
378.541	12725.59566
378.859	13101.48419
379.178	13391.11664
379.496	13226.1853
379.814	12887.65681
380.133	12810.60335
380.451	12801.37219
380.769	12542.19038
381.087	12354.99874
381.405	12316.70491
381.723	12319.72623
382.041	12452.98729
382.359	12469.18404
382.677	12433.76617
382.995	12679.62329
383.313	12793.16947
383.631	12705.15345
383.949	12696.98107
384.266	12905.15374
384.584	13036.22948
384.901	12799.32127
385.219	12939.15139
385.537	13077.64354
385.854	12894.86002
386.171	12851.6703
386.489	12968.03188
386.806	12856.80821
387.123	12827.02237
387.441	12925.75318
387.758	12915.45146
388.075	12761.40835
388.392	12566.57038
388.709	12473.23474
389.026	12357.01564
389.343	12372.147
389.66	12584.87017
389.977	12703.11011
390.294	12778.82093
390.61	12991.77834
390.927	13134.68673
391.244	13034.16039
391.56	12818.81157
391.877	12765.50437
392.193	12741.96104
392.51	12827.02237
392.826	12805.47452
393.143	12708.21875
393.459	12758.33675
393.775	12775.74727
394.092	12817.7854
394.408	12957.71385
394.724	13044.50738
395.04	13107.70676
395.356	13127.42043
395.672	13344.06373
395.988	13512.65853
396.304	13608.21304
396.62	13647.10415
396.936	13719.67294
397.252	13918.50931
397.567	13911.14892
397.883	13998.36983
398.199	13997.31979
398.514	13834.36083
398.83	13916.40641
399.146	13861.71495
399.461	13695.47847
399.777	13641.84751
400.092	13646.0528
400.407	13697.58217
400.723	13453.94125
401.038	13163.76986
401.353	13116.00562
401.668	13113.93068
401.983	12948.43101
402.298	12800.34671
402.613	12749.12414
402.928	12687.79021
403.243	12518.84723
403.558	12577.75208
403.873	12933.99743
404.188	12912.36172
404.503	12602.16501
404.817	12524.93477
405.132	12580.80245
405.447	12716.39467
405.761	12673.49978
406.076	12625.58208
406.39	12894.86002
406.705	12952.55632
407.019	13036.22948
407.334	13024.85141
407.648	12912.36172
407.962	12904.12418
408.276	12889.71467
408.591	12902.0652
408.905	12820.86403
409.219	12996.94337
409.533	13066.24857
409.847	12977.32149
410.161	13028.98835
410.475	13190.80096
410.789	13134.68673
411.102	12895.88921
411.416	12981.45124
411.73	13190.80096
412.044	13327.34828
412.357	13129.49633
412.671	12851.6703
412.984	13008.30988
413.298	12956.68227
413.611	12794.19467
413.925	12872.22798
414.238	12946.36859
414.552	12992.81127
414.865	12883.54157
415.178	12730.70874
415.491	12557.42525
415.804	12509.71851
416.118	12491.47043
416.431	12409.50616
416.744	12426.68812
417.057	12463.10912
417.37	12422.64434
417.683	12282.48535
417.995	12264.38542
418.308	12232.23519
418.621	12225.20695
418.934	12194.10156
419.246	12230.22695
419.559	12425.67712
419.872	12610.3077
420.184	12902.0652
420.497	12968.03188
420.809	12919.57167
421.121	12731.73147
421.434	12475.26032
421.746	12680.64402
422.058	12688.81126
422.371	12424.66616
422.683	12468.17145
422.995	12281.47951
423.307	12156.01544
423.619	12091.97441
423.931	11983.18962
424.243	12048.01926
424.555	11931.41131
424.867	11743.79801
425.179	11765.59317
425.491	11860.82976
425.802	11667.59628
426.114	11593.48685
426.426	11618.17829
426.737	11476.10181
427.049	11513.56125
427.361	11626.08197
427.672	11585.58797
427.984	11470.18916
428.295	11470.18916
428.606	11396.32376
428.918	11258.62635
429.229	11334.3329
429.54	11307.77941
429.851	11102.46224
430.163	10944.48438
430.474	10847.38071
430.785	10999.42151
431.096	10993.5349
431.407	11012.17627
431.718	11180.02923
432.029	11061.23961
432.339	10895.44018
432.65	10887.59353
432.961	10876.80454
433.272	10910.15291
433.582	11073.01655
433.893	10957.23681
434.204	10863.07331
434.514	10946.44626
434.825	10901.32523
435.135	10928.78966
435.446	11040.63166
435.756	11149.58652
436.066	11232.09367
436.377	11231.11111
436.687	11244.86784
436.997	11122.09559
437.307	11153.51422
437.617	11271.40376
437.927	11073.01655
438.237	10992.55382
438.547	11050.44471
438.857	11122.09559
439.167	11277.30158
439.477	11235.04142
439.787	11365.81436
440.097	11321.54689
440.407	11132.89498
440.716	11092.64646
441.026	11051.42604
441.336	11179.04709
441.645	11143.69517
441.955	11005.30824
442.264	10970.97072
442.574	11153.51422
442.883	11009.23281
443.192	10829.72673
443.502	11040.63166
443.811	10965.08469
444.12	10829.72673
444.429	10665.92959
444.739	10585.4827
445.048	10624.72758
445.357	10609.03025
445.666	10786.57285
445.975	10795.3998
446.284	10627.67074
446.593	10438.25714
446.901	10340.04185
447.21	10552.12013
447.519	10505.01205
447.828	10360.67207
448.136	10370.49501
448.445	10662.98674
448.754	10708.10828
449.062	10397.01392
449.371	10376.38848
449.679	10667.89147
449.988	11008.25166
450.296	11359.91067
450.605	11708.15585
450.913	12002.1273
451.221	12350.96537
451.529	12498.56543
451.838	12315.69787
452.146	11869.76959
452.454	11826.08274
452.762	11969.24201
453.07	11557.9507
453.378	11264.52341
453.686	11326.46436
453.994	11356.95899
454.302	11071.05367
454.609	10635.51905
454.917	10467.7107
455.225	10416.65479
455.533	10476.54587
455.84	10371.47727
456.148	10196.52976
456.455	10140.45817
456.763	10265.35577
457.07	10508.93811
457.378	10616.87901
457.685	10541.32539
457.993	10430.40205
458.3	10465.74728
458.607	10559.97054
458.915	10838.5537
459.222	11186.90437
459.529	11042.59423
459.836	10829.72673
460.143	10650.23414
460.45	10392.10334
460.757	10367.54819
461.064	10418.61875
461.371	10545.25081
461.678	10713.9934
461.985	10848.36149
462.292	10983.72417
462.598	11327.44789
462.905	11625.09395
463.212	11742.80757
463.518	12016.08794
463.825	12360.04126
464.131	12750.1476
464.438	12840.37045
464.744	12480.32493
465.051	12260.36473
465.357	12306.63612
465.664	12230.22695
465.97	11729.93387
466.276	11424.87594
466.582	11452.45434
466.889	11468.21839
467.195	11648.81178
467.501	12253.32984
467.807	13179.36178
468.113	13779.64558
468.419	14351.96512
468.725	14877.67154
469.031	15182.04554
469.337	15242.29118
469.642	15031.40673
469.948	14806.5427
470.254	14639.03728
470.56	14176.41423
470.865	13522.10183
471.171	13262.6518
471.477	12950.49359
471.782	12390.31545
472.088	12061.99869
472.393	12026.06327
472.698	11624.10594
473.004	11328.43143
473.309	11701.22861
473.614	12038.03751
473.92	12250.3154
474.225	12327.78466
474.53	12304.62279
474.835	12266.39597
475.14	12097.97283
475.445	11828.06748
475.75	11351.05594
476.055	11057.31412
476.36	10811.0921
476.665	10357.72507
476.97	10070.57804
477.275	10148.32941
477.58	10334.14699
477.885	10336.11197
478.189	10060.7324
478.494	9887.30661
478.799	9909.98588
479.103	9887.30661
479.408	9861.66338
479.712	9962.22865
480.017	10119.79371
480.321	10400.94227
480.625	10557.02667
480.93	10590.3886
481.234	11128.96784
481.538	11650.78877
481.843	11895.60725
482.147	12050.01596
482.451	12287.51511
482.755	12586.90427
483.059	12639.84623
483.363	12602.16501
483.667	12795.21991
483.971	12931.93613
484.275	12653.0985
484.579	12777.79633
484.883	13045.54229
485.187	12848.58803
485.49	12651.05925
485.794	12635.76997
486.098	12528.99391
486.401	12410.51657
486.705	12351.97366
487.009	12135.98879
487.312	12090.97478
487.616	12084.97763
487.919	11958.28697
488.222	11975.21889
488.526	11938.37718
488.829	11935.39165
489.132	12068.99059
489.436	11832.03726
489.739	11809.21628
490.042	12039.03555
490.345	11973.22648
490.648	11920.46756
490.951	11800.28974
491.254	11924.44673
491.557	12197.11036
491.86	12271.42296
492.163	12702.0885
492.466	13091.11624
492.769	13372.28843
493.072	13694.42663
493.375	13728.08927
493.677	13809.1082
493.98	13851.19461
494.283	13635.53997
494.585	13331.52641
494.888	13046.57724
495.19	12822.91665
495.493	12785.99421
495.795	12523.92008
496.098	12187.08216
496.4	12090.97478
496.702	12030.05422
497.005	12106.97255
497.307	12120.97711
497.609	11882.68627
497.911	11783.43362
498.213	11805.24869
498.515	11672.54075
498.818	11723.00339
499.12	11809.21628
499.422	11694.30238
499.723	11621.14203
500.025	11786.40775
500.327	11834.02229
500.629	11825.0904
500.931	11903.56078
501.233	11773.52135
501.534	11697.27064
501.836	11720.0335
502.138	11749.74108
502.439	11810.20823
502.741	11762.62047
503.042	11707.16618
503.344	11827.0751
503.645	11986.1791
503.947	11923.4519
504.248	11956.29551
504.55	11971.23419
504.851	11972.23032
505.152	12072.98663
505.453	11932.40635
505.755	11950.32176
506.056	11958.28697
506.357	11883.68004
506.658	11899.5838
506.959	11804.25685
507.26	11874.73704
507.561	11877.71781
507.862	11785.41635
508.163	11683.42034
508.464	11629.04616
508.764	11816.16046
509.065	11673.5297
509.366	11592.49943
509.667	11743.79801
509.967	11629.04616
510.268	11557.9507
510.569	11608.30035
510.869	11510.60312
511.17	11397.30814
511.47	11432.75438
511.771	11402.23021
512.071	11496.80035
512.371	11540.19094
512.672	11470.18916
512.972	11491.87152
513.272	11414.0445
513.573	11247.81594
513.873	11245.85053
514.173	11204.58507
514.473	11144.67704
514.773	11264.52341
515.073	11256.66073
515.373	11243.88515
515.673	11191.81542
515.973	11050.44471
516.273	11024.9317
516.573	10956.25583
516.873	10812.07287
517.172	10848.36149
517.472	10797.36134
517.772	10767.93807
518.072	10799.32288
518.371	10806.18826
518.671	10852.28462
518.97	10808.1498
