Data from white_1_6_ST026791__119__22478.txt Node

Date: Tue Aug 19 16:20:13 AEST 2025
User: mathewyoussef
Spectrometer: ST02679
Trigger mode: 0
Integration Time (sec): 6.653700E-1
Scans to average: 1
Nonlinearity correction enabled: true
Boxcar width: 0
Storing dark spectrum: false
XAxis mode: Wavelengths
Number of Pixels in Spectrum: 1516
>>>>>Begin Spectral Data<<<<<
187.304	592.66961
187.653	608.57064
188.002	590.54827
188.351	570.38093
188.7	584.18248
189.048	575.69069
189.397	597.97173
189.746	627.63109
190.094	629.74755
190.443	604.33193
190.791	576.75242
191.14	606.45143
191.488	610.68958
191.837	597.97173
192.185	609.63015
192.533	595.8511
192.881	603.27207
193.229	604.33193
193.577	586.3047
193.925	585.24363
194.273	597.97173
194.621	636.09528
194.969	644.55518
195.317	605.39171
195.664	609.63015
196.012	611.74894
196.359	588.42663
196.707	624.4559
197.054	607.51107
197.402	591.60898
197.749	613.86746
198.096	602.21215
198.443	591.60898
198.791	566.13178
199.138	551.25029
199.485	596.91145
199.832	611.74894
200.179	582.05997
200.525	560.81866
200.872	585.24363
201.219	588.42663
201.566	618.10366
201.912	640.32577
202.259	607.51107
202.605	607.51107
202.952	599.03194
203.298	599.03194
203.644	605.39171
203.991	607.51107
204.337	604.33193
204.683	626.57276
205.029	623.39736
205.375	595.8511
205.721	647.72654
206.067	650.89731
206.413	600.09208
206.759	593.73018
207.104	584.18248
207.45	605.39171
207.796	613.86746
208.141	588.42663
208.487	599.03194
208.832	617.04472
209.177	608.57064
209.523	606.45143
209.868	600.09208
210.213	617.04472
210.558	592.66961
210.903	562.94414
211.248	589.48748
211.593	607.51107
211.938	597.97173
212.283	619.16254
212.628	657.23708
212.973	617.04472
213.317	593.73018
213.662	590.54827
214.007	579.93717
214.351	571.44303
214.696	578.87566
215.04	592.66961
215.384	579.93717
215.729	619.16254
216.073	626.57276
216.417	580.99861
216.761	580.99861
217.105	596.91145
217.449	601.15215
217.793	617.04472
218.137	611.74894
218.481	585.24363
218.824	604.33193
219.168	610.68958
219.512	610.68958
219.855	599.03194
220.199	568.25651
220.542	591.60898
220.886	637.15301
221.229	633.97964
221.572	608.57064
221.916	623.39736
222.259	638.21066
222.602	602.21215
222.945	582.05997
223.288	584.18248
223.631	588.42663
223.974	615.9857
224.317	613.86746
224.659	587.3657
225.002	601.15215
225.345	578.87566
225.687	577.81408
226.03	638.21066
226.372	621.28009
226.715	578.87566
227.057	553.37712
227.4	574.62889
227.742	580.99861
228.084	576.75242
228.426	591.60898
228.768	590.54827
229.11	608.57064
229.452	590.54827
229.794	601.15215
230.136	618.10366
230.478	569.31875
230.82	585.24363
231.161	602.21215
231.503	657.23708
231.845	674.13176
232.186	645.61237
232.528	621.28009
232.869	568.25651
233.21	618.10366
233.552	627.63109
233.893	602.21215
234.234	575.69069
234.575	565.06931
234.916	618.10366
235.257	625.51436
235.598	588.42663
235.939	585.24363
236.28	586.3047
236.621	584.18248
236.961	600.09208
237.302	612.80824
237.643	593.73018
237.983	608.57064
238.324	632.92172
238.664	622.33876
239.005	604.33193
239.345	595.8511
239.685	591.60898
240.025	588.42663
240.366	629.74755
240.706	646.66949
241.046	619.16254
241.386	591.60898
241.726	591.60898
242.066	586.3047
242.405	597.97173
242.745	624.4559
243.085	604.33193
243.425	580.99861
243.764	604.33193
244.104	658.29348
244.443	660.40609
244.783	625.51436
245.122	607.51107
245.461	578.87566
245.801	590.54827
246.14	590.54827
246.479	592.66961
246.818	602.21215
247.157	609.63015
247.496	610.68958
247.835	576.75242
248.174	588.42663
248.513	591.60898
248.852	644.55518
249.19	632.92172
249.529	570.38093
249.868	602.21215
250.206	623.39736
250.545	607.51107
250.883	603.27207
251.221	600.09208
251.56	601.15215
251.898	597.97173
252.236	603.27207
252.574	607.51107
252.912	585.24363
253.25	610.68958
253.588	622.33876
253.926	606.45143
254.264	608.57064
254.602	613.86746
254.94	595.8511
255.278	564.00676
255.615	582.05997
255.953	626.57276
256.29	614.92662
256.628	584.18248
256.965	580.99861
257.303	582.05997
257.64	635.0375
257.977	623.39736
258.314	603.27207
258.652	600.09208
258.989	571.44303
259.326	590.54827
259.663	591.60898
260	576.75242
260.337	588.42663
260.673	608.57064
261.01	613.86746
261.347	589.48748
261.684	567.19418
262.02	602.21215
262.357	606.45143
262.693	588.42663
263.03	592.66961
263.366	585.24363
263.702	588.42663
264.039	585.24363
264.375	588.42663
264.711	632.92172
265.047	606.45143
265.383	584.18248
265.719	599.03194
266.055	580.99861
266.391	625.51436
266.727	662.51844
267.063	629.74755
267.399	591.60898
267.734	610.68958
268.07	621.28009
268.405	577.81408
268.741	584.18248
269.076	590.54827
269.412	571.44303
269.747	565.06931
270.082	585.24363
270.418	610.68958
270.753	638.21066
271.088	621.28009
271.423	604.33193
271.758	627.63109
272.093	609.63015
272.428	593.73018
272.763	604.33193
273.098	626.57276
273.433	615.9857
273.767	601.15215
274.102	605.39171
274.436	592.66961
274.771	582.05997
275.106	564.00676
275.44	595.8511
275.774	641.38322
276.109	603.27207
276.443	569.31875
276.777	599.03194
277.111	623.39736
277.445	599.03194
277.78	601.15215
278.114	630.80567
278.447	632.92172
278.781	611.74894
279.115	582.05997
279.449	589.48748
279.783	617.04472
280.116	623.39736
280.45	609.63015
280.784	626.57276
281.117	636.09528
281.451	612.80824
281.784	714.19244
282.117	706.81946
282.451	596.91145
282.784	597.97173
283.117	650.89731
283.45	673.07633
283.783	646.66949
284.116	660.40609
284.449	674.13176
284.782	693.11893
285.115	728.9297
285.448	716.29847
285.781	697.33557
286.114	696.2815
286.446	701.55124
286.779	806.6435
287.111	789.8656
287.444	718.40427
287.776	759.42095
288.109	796.15888
288.441	784.61975
288.773	803.49866
289.106	908.0897
289.438	883.03066
289.77	835.97335
290.102	912.26372
290.434	949.79912
290.766	1061.06017
291.098	1061.06017
291.43	1040.29587
291.762	1121.20015
292.094	1109.80273
292.425	1088.03319
292.757	1100.47468
293.089	1154.33492
293.42	1220.51411
293.752	1226.71255
294.083	1264.91528
294.414	1385.49865
294.746	1395.79061
295.077	1419.45415
295.408	1493.46281
295.74	1579.68451
296.071	1600.19549
296.402	1562.24488
296.733	1637.09869
297.064	1695.48687
297.395	1734.38497
297.726	1833.58346
298.056	1894.87882
298.387	1921.42538
298.718	2033.64198
299.049	2178.28068
299.379	2153.85206
299.71	2136.54421
300.04	2196.59752
300.371	2190.49235
300.701	2229.15105
301.031	2402.89655
301.362	2453.63107
301.692	2470.87368
302.022	2567.16211
302.352	2579.31666
302.682	2602.60768
303.012	2706.8262
303.342	2833.11497
303.672	2888.61449
304.002	3040.76838
304.332	3133.31207
304.662	3090.07314
304.992	3146.37903
305.321	3236.77506
305.651	3324.04505
305.98	3397.18558
306.31	3389.17401
306.639	3424.21764
306.969	3490.25079
307.298	3537.23533
307.628	3655.0542
307.957	3693.94995
308.286	3716.87822
308.615	3787.60929
308.944	3918.92195
309.273	4065.87167
309.602	4071.82308
309.931	4161.03985
310.26	4260.05417
310.589	4277.86434
310.918	4338.19389
311.247	4594.90348
311.575	4672.77987
311.904	4651.09799
312.233	4776.21001
312.561	4735.8328
312.89	4784.0871
313.218	5020.2163
313.546	5106.72414
313.875	5046.7619
314.203	5147.01885
314.531	5213.83742
314.859	5207.94219
315.188	5302.25611
315.516	5377.89227
315.844	5470.2205
316.172	5525.22406
316.5	5548.79742
316.827	5699.09312
317.155	5747.23602
317.483	5751.1663
317.811	5732.4978
318.138	5811.10859
318.466	6033.3029
318.794	6139.56442
319.121	6066.74927
319.449	6144.4854
319.776	6260.66154
320.103	6195.6718
320.431	6308.92853
320.758	6480.45133
321.085	6578.135
321.412	6591.95453
321.739	6563.32993
322.066	6628.48448
322.393	6708.49079
322.72	6735.17045
323.047	6875.57628
323.374	7073.58912
323.701	7012.17312
324.028	6925.0513
324.354	7027.02921
324.681	7171.71496
325.008	7383.06635
325.334	7394.98239
325.661	7373.13701
325.987	7442.65553
326.314	7458.5497
326.64	7590.72715
326.966	7742.89443
327.293	7694.14914
327.619	7610.61181
327.945	7809.56251
328.271	7832.45259
328.597	7793.64015
328.923	7911.08899
329.249	7939.96044
329.575	7885.2064
329.901	7839.41951
330.227	8022.60475
330.552	8132.15496
330.878	8165.02334
331.204	8037.54216
331.529	7847.38193
331.855	8086.34066
332.18	8326.3855
332.506	8237.73522
332.831	8259.64882
333.156	8463.83267
333.482	8551.46408
333.807	8493.70886
334.132	8519.60008
334.457	8580.33858
334.782	8607.21961
335.107	8682.87223
335.432	8698.7965
335.757	8804.26817
336.082	8872.89623
336.407	8862.95164
336.732	8917.64022
337.057	8994.1752
337.381	9182.86292
337.706	9170.95336
338.031	9073.65286
338.355	9039.87997
338.68	9093.51561
339.004	9127.2759
339.329	9139.18933
339.653	9272.1495
339.977	9222.5536
340.301	9289.00758
340.626	9366.32608
340.95	9345.51454
341.274	9454.48556
341.598	9469.3371
341.922	9457.45603
342.246	9531.69174
342.57	9693.84257
342.894	9787.65774
343.218	9734.34149
343.541	9814.30575
343.865	9924.77413
344.189	9936.60327
344.512	10060.7324
344.836	10162.10286
345.159	10084.36052
345.483	10017.40145
345.806	10116.84135
346.13	10218.16471
346.453	10150.29714
346.776	10178.82568
347.099	10358.70741
347.423	10397.99601
347.746	10366.56591
348.069	10603.14354
348.392	10601.18128
348.715	10341.02431
349.038	10425.49244
349.361	10522.67875
349.683	10590.3886
350.006	10598.23786
350.329	10605.10579
350.652	10846.39992
350.974	10923.88518
351.297	10848.36149
351.619	10965.08469
351.942	11076.94236
352.264	11099.51745
352.587	11136.82223
352.909	11214.40881
353.231	11174.13654
353.554	11237.98925
353.876	11356.95899
354.198	11416.01373
354.52	11423.8912
354.842	11357.94287
355.164	11470.18916
355.486	11406.1681
355.808	11386.48071
356.13	11581.63896
356.452	11653.75439
356.773	11525.39522
357.095	11458.36542
357.417	11535.25862
357.738	11542.16398
358.06	11729.93387
358.381	11728.94374
358.703	11569.79359
359.024	11550.05681
359.346	11520.46412
359.667	11565.84569
359.988	11600.39931
360.309	11638.92802
360.631	11725.97347
360.952	11862.81621
361.273	11853.87795
361.594	11936.3868
361.915	12124.97953
362.236	12194.10156
362.557	12441.85762
362.878	12441.85762
363.198	12105.97246
363.519	11994.15229
363.84	12157.01711
364.16	12282.48535
364.481	12223.19918
364.802	12170.04171
365.122	12309.65639
365.443	12366.09348
365.763	12196.1074
366.083	12088.97561
366.404	12027.06096
366.724	12049.0176
367.044	12073.98571
367.364	11785.41635
367.685	11759.64797
368.005	11925.44159
368.325	11966.25394
368.645	12062.99744
368.965	12073.98571
369.284	12005.11839
369.604	12006.11548
369.924	12166.03356
370.244	12460.07217
370.564	12569.61946
370.883	12412.53749
371.203	12570.6359
371.522	12741.96104
371.842	12874.28463
372.161	12738.89175
372.481	12497.55175
372.8	12626.60069
373.119	12643.92314
373.439	12715.37254
373.758	12865.03096
374.077	12753.21823
374.396	12618.45293
374.715	12422.64434
375.034	12246.29663
375.353	12008.10974
375.672	11541.17745
375.991	10965.08469
376.31	10588.42625
376.629	10368.53047
376.948	10570.76445
377.266	11063.20238
377.585	11256.66073
377.904	11732.9044
378.222	12224.20305
378.541	12648.00068
378.859	13133.64857
379.178	13254.31297
379.496	13099.4103
379.814	12806.50021
380.133	12651.05925
380.451	12722.5283
380.769	12479.31193
381.087	12294.55822
381.405	12286.50909
381.723	12242.27839
382.041	12401.42424
382.359	12572.6689
382.677	12586.90427
382.995	12588.93852
383.313	12606.23604
383.631	12619.47126
383.949	12619.47126
384.266	12894.86002
384.584	13047.61223
384.901	12833.18217
385.219	12734.79992
385.537	12867.08705
385.854	12857.83591
386.171	12849.61541
386.489	13095.26297
386.806	13074.53536
387.123	12992.81127
387.441	12930.90554
387.758	12837.28952
388.075	12698.00247
388.392	12638.82711
388.709	12576.73536
389.026	12569.61946
389.343	12635.76997
389.66	12797.27051
389.977	12866.05898
390.294	12773.69837
390.61	12947.39978
390.927	13108.74399
391.244	13018.64717
391.56	12916.48145
391.877	12799.32127
392.193	12782.9197
392.51	12791.11919
392.826	12662.2771
393.143	12734.79992
393.459	12791.11919
393.775	12754.24185
394.092	12926.78357
394.408	13046.57724
394.724	13054.85822
395.04	13060.03508
395.356	13027.95405
395.672	13294.98466
395.988	13551.49163
396.304	13750.18378
396.62	13820.68254
396.936	13813.31708
397.252	13801.74259
397.567	13830.15219
397.883	13905.89111
398.199	13760.70562
398.514	13759.65342
398.83	13875.39029
399.146	13768.07108
399.461	13717.56892
399.777	13778.59334
400.092	13719.67294
400.407	13579.84604
400.723	13372.28843
401.038	13060.03508
401.353	13113.93068
401.668	13189.76086
401.983	12892.80176
402.298	12713.3284
402.613	12613.36187
402.928	12538.12923
403.243	12596.05965
403.558	12758.33675
403.873	12835.23576
404.188	12717.41684
404.503	12593.0075
404.817	12658.19732
405.132	12687.79021
405.447	12798.29587
405.761	12860.91926
406.076	12608.27179
406.39	12760.38444
406.705	12868.11515
407.019	12825.99588
407.334	12983.51634
407.648	12990.74546
407.962	12851.6703
408.276	12876.34145
408.591	12885.59911
408.905	12671.45894
409.219	12964.93606
409.533	13016.5794
409.847	12928.84448
410.161	13187.68076
410.475	13287.68096
410.789	13112.89327
411.102	12890.74366
411.416	12971.12807
411.73	13038.29872
412.044	13097.33656
412.357	13021.74911
412.671	12860.91926
412.984	12983.51634
413.298	13002.10938
413.611	12972.16021
413.925	12920.60182
414.238	12894.86002
414.552	12950.49359
414.865	12714.35045
415.178	12555.39343
415.491	12577.75208
415.804	12527.97906
416.118	12453.9993
416.431	12323.75517
416.744	12243.2829
417.057	12407.48546
417.37	12512.76107
417.683	12303.61617
417.995	12178.05957
418.308	12131.98498
418.621	12132.98588
418.934	12022.07279
419.246	12116.97518
419.559	12437.8116
419.872	12561.48936
420.184	12729.68604
420.497	12870.17148
420.809	12808.5517
421.121	12469.18404
421.434	12519.86172
421.746	12756.28922
422.058	12685.74824
422.371	12424.66616
422.683	12228.21885
422.995	12115.97478
423.307	12046.02267
423.619	12193.09869
423.931	12082.97883
424.243	12019.08023
424.555	11948.33072
424.867	11690.34499
425.179	11646.83488
425.491	11619.16618
425.802	11572.7547
426.114	11515.53342
426.426	11477.08731
426.737	11467.23303
427.049	11462.30644
427.361	11528.35407
427.672	11628.05808
427.984	11519.47795
428.295	11541.17745
428.606	11659.68616
428.918	11463.29173
429.229	11375.6548
429.54	11310.72941
429.851	11012.17627
430.163	10893.47851
430.474	10874.84292
430.785	10895.44018
431.096	11011.19512
431.407	10950.37006
431.718	10910.15291
432.029	10797.36134
432.339	10866.9965
432.65	10993.5349
432.961	10920.94252
433.272	10860.13093
433.582	10909.17205
433.893	10916.03812
434.204	10898.38269
434.514	10962.14171
434.825	10904.26777
435.135	10926.82786
435.446	11042.59423
435.756	11129.94962
436.066	11213.4264
436.377	11237.00663
436.687	11128.96784
436.997	11068.1094
437.307	11159.40599
437.617	11119.15043
437.927	10851.30384
438.237	10931.73237
438.547	11063.20238
438.857	11066.14658
439.167	11356.95899
439.477	11419.95236
439.787	11336.30014
440.097	11412.07532
440.407	11340.23477
440.716	11163.33398
441.026	11172.17237
441.336	11145.65892
441.645	10947.42721
441.955	10875.82373
442.264	11000.40262
442.574	11136.82223
442.883	10968.02769
443.192	10774.80354
443.502	10862.09252
443.811	10814.03441
444.12	10771.8612
444.429	10698.29961
444.739	10642.38616
445.048	10616.87901
445.357	10461.82036
445.666	10605.10579
445.975	10593.3321
446.284	10479.49083
446.593	10514.82706
446.901	10471.63749
447.21	10547.21349
447.519	10495.19658
447.828	10352.81327
448.136	10331.19947
448.445	10612.95466
448.754	10685.54806
449.062	10438.25714
449.371	10503.04899
449.679	10775.78432
449.988	10902.30607
450.296	11221.28593
450.605	11666.60744
450.913	11961.27438
451.221	12354.99874
451.529	12518.84723
451.838	12272.42845
452.146	11864.80277
452.454	11761.62961
452.762	11875.7306
453.07	11559.92435
453.378	11379.59132
453.686	11356.95899
453.994	11268.45498
454.302	11072.03511
454.609	10689.47165
454.917	10581.55791
455.225	10473.60086
455.533	10412.7268
455.84	10435.31152
456.148	10382.28173
456.455	10184.72732
456.763	10090.2668
457.07	10305.65181
457.378	10514.82706
457.685	10511.88261
457.993	10432.36585
458.3	10546.23215
458.607	10687.50985
458.915	10688.49075
459.222	10827.76519
459.529	10929.77056
459.836	11007.27052
460.143	10852.28462
460.45	10556.04537
460.757	10429.42014
461.064	10404.87054
461.371	10385.22827
461.678	10438.25714
461.985	10637.48109
462.292	10896.42101
462.598	11300.89645
462.905	11661.66357
463.212	11809.21628
463.518	11985.18258
463.825	12233.23935
464.131	12672.47934
464.438	12852.6978
464.744	12440.84606
465.051	12228.21885
465.357	12265.39068
465.664	12124.97953
465.97	11735.87513
466.276	11681.44205
466.582	11617.19041
466.889	11433.73924
467.195	11648.81178
467.501	12170.04171
467.807	12982.48377
468.113	13715.46493
468.419	14388.05885
468.725	14839.37378
469.031	15138.17122
469.337	15178.63922
469.642	14894.78438
469.948	14678.90642
470.254	14519.04041
470.56	13995.21964
470.865	13350.33402
471.171	13168.96627
471.477	12905.15374
471.782	12402.43435
472.088	11997.14271
472.393	11952.3129
472.698	11765.59317
473.004	11371.71848
473.309	11560.9112
473.614	12024.06797
473.92	12256.34459
474.225	12337.86091
474.53	12301.60305
474.835	12249.31066
475.14	12038.03751
475.445	11756.67567
475.75	11357.94287
476.055	10925.84697
476.36	10585.4827
476.665	10301.721
476.97	10108.96803
477.275	10158.16775
477.58	10311.54782
477.885	10280.09958
478.189	10064.67076
478.494	9877.44456
478.799	9812.33205
479.103	9908.99993
479.408	9863.63616
479.712	9849.82596
480.017	10043.00811
480.321	10343.97163
480.625	10507.9566
480.93	10598.23786
481.234	11014.1386
481.538	11429.79986
481.843	11725.97347
482.147	11987.17565
482.451	12231.23105
482.755	12421.63349
483.059	12482.35104
483.363	12616.41639
483.667	12858.86365
483.971	12752.19465
484.275	12480.32493
484.579	12660.23713
484.883	13054.85822
485.187	12923.69252
485.49	12670.43857
485.794	12608.27179
486.098	12570.6359
486.401	12503.63444
486.705	12300.59654
487.009	12061.99869
487.312	12053.01124
487.616	11948.33072
487.919	11708.15585
488.222	11790.37357
488.526	11869.76959
488.829	11879.70512
489.132	11963.26612
489.436	11781.45099
489.739	11744.78847
490.042	11909.52701
490.345	12060.00127
490.648	12026.06327
490.951	11850.89898
491.254	12020.07772
491.557	12224.20305
491.86	12228.21885
492.163	12483.36415
492.466	12869.1433
492.769	13282.465
493.072	13585.09828
493.375	13792.27244
493.677	13968.96026
493.98	13888.01238
494.283	13673.39179
494.585	13354.51481
494.888	13135.72492
495.19	12941.21325
495.493	12642.90385
495.795	12348.94891
496.098	12353.99034
496.4	12270.41749
496.702	12044.02621
497.005	12103.97237
497.307	12009.10692
497.609	11829.05989
497.911	11845.93451
498.213	11776.4948
498.515	11642.88129
498.818	11670.5629
499.12	11710.13525
499.422	11509.6171
499.723	11533.28581
500.025	11720.0335
500.327	11708.15585
500.629	11816.16046
500.931	11860.82976
501.233	11698.2601
501.534	11598.42423
501.836	11601.38688
502.138	11704.1973
502.439	11829.05989
502.741	11733.89462
503.042	11773.52135
503.344	11881.69253
503.645	11973.22648
503.947	12045.02443
504.248	11986.1791
504.55	11894.61317
504.851	11938.37718
505.152	12056.00679
505.453	12012.09861
505.755	11922.4571
506.056	11789.38208
506.357	11662.6523
506.658	11694.30238
506.959	11717.0638
507.26	11837.99264
507.561	11811.20021
507.862	11706.17653
508.163	11711.12498
508.464	11608.30035
508.764	11745.77895
509.065	11665.61863
509.366	11673.5297
509.667	11749.74108
509.967	11549.07014
510.268	11552.03018
510.569	11693.313
510.869	11597.43672
511.17	11386.48071
511.47	11408.13712
511.771	11364.83038
512.071	11406.1681
512.371	11601.38688
512.672	11431.76952
512.972	11351.05594
513.272	11382.54384
513.573	11262.55769
513.873	11289.09828
514.173	11215.39123
514.473	11213.4264
514.773	11329.41498
515.073	11213.4264
515.373	11107.37035
515.673	11162.35197
515.973	11118.16872
516.273	11018.06331
516.573	10977.8379
516.873	10873.86212
517.172	10853.26541
517.472	10853.26541
517.772	10807.16903
518.072	10865.0349
518.371	10881.70861
518.671	10794.41903
518.97	10719.87846
