Data from white_1_6_ST026791__16__22375.txt Node

Date: Tue Aug 19 16:17:54 AEST 2025
User: mathewyoussef
Spectrometer: ST02679
Trigger mode: 0
Integration Time (sec): 6.653700E-1
Scans to average: 1
Nonlinearity correction enabled: true
Boxcar width: 0
Storing dark spectrum: false
XAxis mode: Wavelengths
Number of Pixels in Spectrum: 1516
>>>>>Begin Spectral Data<<<<<
187.304	594.79068
187.653	636.09528
188.002	624.4559
188.351	588.42663
188.7	595.8511
189.048	592.66961
189.397	617.04472
189.746	619.16254
190.094	603.27207
190.443	596.91145
190.791	599.03194
191.14	610.68958
191.488	591.60898
191.837	580.99861
192.185	570.38093
192.533	577.81408
192.881	594.79068
193.229	606.45143
193.577	614.92662
193.925	609.63015
194.273	631.86373
194.621	633.97964
194.969	606.45143
195.317	593.73018
195.664	605.39171
196.012	621.28009
196.359	604.33193
196.707	593.73018
197.054	599.03194
197.402	610.68958
197.749	631.86373
198.096	605.39171
198.443	595.8511
198.791	600.09208
199.138	575.69069
199.485	599.03194
199.832	610.68958
200.179	588.42663
200.525	595.8511
200.872	618.10366
201.219	597.97173
201.566	610.68958
201.912	641.38322
202.259	594.79068
202.605	562.94414
202.952	609.63015
203.298	605.39171
203.644	575.69069
203.991	605.39171
204.337	621.28009
204.683	627.63109
205.029	609.63015
205.375	599.03194
205.721	635.0375
206.067	622.33876
206.413	608.57064
206.759	617.04472
207.104	593.73018
207.45	608.57064
207.796	613.86746
208.141	602.21215
208.487	613.86746
208.832	603.27207
209.177	588.42663
209.523	612.80824
209.868	604.33193
210.213	611.74894
210.558	623.39736
210.903	606.45143
211.248	601.15215
211.593	577.81408
211.938	593.73018
212.283	637.15301
212.628	618.10366
212.973	585.24363
213.317	587.3657
213.662	591.60898
214.007	607.51107
214.351	623.39736
214.696	625.51436
215.04	627.63109
215.384	606.45143
215.729	604.33193
216.073	623.39736
216.417	624.4559
216.761	614.92662
217.105	603.27207
217.449	624.4559
217.793	621.28009
218.137	610.68958
218.481	595.8511
218.824	593.73018
219.168	613.86746
219.512	629.74755
219.855	606.45143
220.199	577.81408
220.542	599.03194
220.886	603.27207
221.229	611.74894
221.572	603.27207
221.916	586.3047
222.259	592.66961
222.602	608.57064
222.945	584.18248
223.288	594.79068
223.631	611.74894
223.974	590.54827
224.317	612.80824
224.659	607.51107
225.002	582.05997
225.345	589.48748
225.687	593.73018
226.03	613.86746
226.372	604.33193
226.715	603.27207
227.057	601.15215
227.4	585.24363
227.742	640.32577
228.084	630.80567
228.426	593.73018
228.768	594.79068
229.11	585.24363
229.452	588.42663
229.794	587.3657
230.136	579.93717
230.478	586.3047
230.82	597.97173
231.161	594.79068
231.503	657.23708
231.845	692.06461
232.186	662.51844
232.528	632.92172
232.869	590.54827
233.21	606.45143
233.552	600.09208
233.893	569.31875
234.234	589.48748
234.575	606.45143
234.916	590.54827
235.257	590.54827
235.598	617.04472
235.939	622.33876
236.28	580.99861
236.621	583.12126
236.961	643.49793
237.302	639.26825
237.643	579.93717
237.983	584.18248
238.324	595.8511
238.664	614.92662
239.005	614.92662
239.345	580.99861
239.685	587.3657
240.025	611.74894
240.366	640.32577
240.706	631.86373
241.046	633.97964
241.386	615.9857
241.726	610.68958
242.066	604.33193
242.405	568.25651
242.745	603.27207
243.085	649.84046
243.425	623.39736
243.764	625.51436
244.104	716.29847
244.443	673.07633
244.783	600.09208
245.122	618.10366
245.461	610.68958
245.801	602.21215
246.14	592.66961
246.479	590.54827
246.818	588.42663
247.157	601.15215
247.496	626.57276
247.835	599.03194
248.174	584.18248
248.513	611.74894
248.852	673.07633
249.19	674.13176
249.529	623.39736
249.868	602.21215
250.206	586.3047
250.545	565.06931
250.883	584.18248
251.221	599.03194
251.56	574.62889
251.898	587.3657
252.236	638.21066
252.574	629.74755
252.912	582.05997
253.25	609.63015
253.588	604.33193
253.926	591.60898
254.264	606.45143
254.602	623.39736
254.94	612.80824
255.278	589.48748
255.615	557.62989
255.953	576.75242
256.29	628.68935
256.628	601.15215
256.965	579.93717
257.303	594.79068
257.64	604.33193
257.977	624.4559
258.314	608.57064
258.652	601.15215
258.989	646.66949
259.326	630.80567
259.663	623.39736
260	635.0375
260.337	605.39171
260.673	601.15215
261.01	601.15215
261.347	599.03194
261.684	587.3657
262.02	592.66961
262.357	599.03194
262.693	582.05997
263.03	610.68958
263.366	632.92172
263.702	597.97173
264.039	558.69289
264.375	571.44303
264.711	596.91145
265.047	597.97173
265.383	602.21215
265.719	632.92172
266.055	630.80567
266.391	629.74755
266.727	617.04472
267.063	603.27207
267.399	597.97173
267.734	605.39171
268.07	637.15301
268.405	628.68935
268.741	637.15301
269.076	611.74894
269.412	574.62889
269.747	579.93717
270.082	584.18248
270.418	595.8511
270.753	604.33193
271.088	619.16254
271.423	612.80824
271.758	588.42663
272.093	601.15215
272.428	588.42663
272.763	566.13178
273.098	594.79068
273.433	607.51107
273.767	626.57276
274.102	617.04472
274.436	572.50506
274.771	591.60898
275.106	586.3047
275.44	599.03194
275.774	645.61237
276.109	626.57276
276.443	614.92662
276.777	593.73018
277.111	602.21215
277.445	635.0375
277.78	626.57276
278.114	631.86373
278.447	600.09208
278.781	569.31875
279.115	590.54827
279.449	602.21215
279.783	621.28009
280.116	607.51107
280.45	596.91145
280.784	654.06749
281.117	687.84674
281.451	660.40609
281.784	714.19244
282.117	731.03409
282.451	633.97964
282.784	648.78353
283.117	673.07633
283.45	694.17318
283.783	693.11893
284.116	658.29348
284.449	702.605
284.782	759.42095
285.115	788.81654
285.448	740.50098
285.781	699.44353
286.114	696.2815
286.446	709.97967
286.779	802.45027
287.111	787.76742
287.444	718.40427
287.776	749.96324
288.109	787.76742
288.441	810.8359
288.773	820.26583
289.106	901.82735
289.438	913.30712
289.77	892.43082
290.102	920.60968
290.434	902.87118
290.766	1042.37293
291.098	1057.94641
291.43	1026.79146
291.762	1084.92208
292.094	1095.2913
292.425	1122.23609
292.757	1158.47458
293.089	1246.33463
293.42	1263.88324
293.752	1277.29781
294.083	1305.14548
294.414	1364.90828
294.746	1358.72946
295.077	1410.19582
295.408	1588.91528
295.74	1650.41974
296.071	1578.65879
296.402	1597.11927
296.733	1733.36161
297.064	1757.91828
297.395	1792.69284
297.726	1865.25872
298.056	1975.51252
298.387	2011.21088
298.718	2074.41038
299.049	2181.33376
299.379	2073.39141
299.71	2050.97097
300.04	2152.83405
300.371	2234.23641
300.701	2329.78432
301.031	2446.53012
301.362	2512.44381
301.692	2568.17506
302.022	2611.71969
302.352	2694.69143
302.682	2838.16211
303.012	2816.96184
303.342	2851.28305
303.672	2883.57081
304.002	3040.76838
304.332	3174.51491
304.662	3165.47247
304.992	3223.72517
305.321	3244.80453
305.651	3348.09992
305.98	3446.23582
306.31	3459.24321
306.639	3521.24423
306.969	3640.08845
307.298	3609.14892
307.628	3656.0518
307.957	3762.71213
308.286	3760.71998
308.615	3874.18326
308.944	4043.05369
309.273	4169.95603
309.602	4151.13183
309.931	4210.56181
310.26	4360.93047
310.589	4435.03257
310.918	4444.90847
311.247	4613.63805
311.575	4687.56075
311.904	4742.72733
312.233	4881.53096
312.561	4820.51295
312.89	4932.68962
313.218	5214.81995
313.546	5274.74985
313.875	5095.91235
314.203	5156.84598
314.531	5256.08404
314.859	5264.92583
315.188	5324.84955
315.516	5424.05687
315.844	5497.72217
316.172	5574.33573
316.5	5752.14888
316.827	5778.67949
317.155	5748.21858
317.483	5899.56935
317.811	5967.40962
318.138	6030.35202
318.466	6077.57137
318.794	6093.31369
319.121	6192.71833
319.449	6266.57099
319.776	6279.37555
320.103	6358.19616
320.431	6549.51333
320.758	6585.04458
321.085	6595.90323
321.412	6747.02983
321.739	6754.93669
322.066	6681.81659
322.393	6748.01816
322.72	6832.05392
323.047	6868.65129
323.374	6960.68501
323.701	7099.35265
324.028	7130.07715
324.354	7077.55242
324.681	7177.66425
325.008	7470.47133
325.334	7553.9461
325.661	7493.3235
325.987	7491.33624
326.314	7553.9461
326.64	7662.32137
326.966	7741.89952
327.293	7766.77345
327.619	7796.62552
327.945	7846.38662
328.271	7825.48584
328.597	7840.4148
328.923	7912.08452
329.249	8014.63833
329.575	8029.57548
329.901	7972.81698
330.227	7994.72288
330.552	8061.44293
330.878	8115.22325
331.204	8133.15096
331.529	8088.33252
331.855	8252.6763
332.18	8437.93869
332.506	8302.47995
332.831	8305.46816
333.156	8475.78335
333.482	8531.54937
333.807	8644.05293
334.132	8790.34079
334.457	8672.91908
334.782	8654.00711
335.107	8793.32531
335.432	8773.42776
335.757	8896.76108
336.082	9105.43194
336.407	9076.63245
336.732	9039.87997
337.057	9101.45994
337.381	9110.39677
337.706	9129.26154
338.031	9213.62426
338.355	9294.95694
338.68	9355.42526
339.004	9345.51454
339.329	9311.81185
339.653	9347.49675
339.977	9348.48784
340.301	9319.74275
340.626	9446.56392
340.95	9527.73377
341.274	9490.12592
341.598	9608.84305
341.922	9754.0914
342.246	9840.94702
342.57	9825.16041
342.894	9781.73505
343.218	9913.92962
343.541	9939.56036
343.865	9988.83326
344.189	10163.08662
344.512	10249.62728
344.836	10263.38981
345.159	10179.80931
345.483	10294.84182
345.806	10230.94729
346.13	10271.25349
346.453	10393.08546
346.776	10254.54263
347.099	10420.58269
347.423	10443.1664
347.746	10387.19261
348.069	10635.51905
348.392	10674.75801
348.715	10599.21901
349.038	10682.60534
349.361	10706.14656
349.683	10735.5717
350.006	10833.64982
350.329	10864.05411
350.652	10860.13093
350.974	10943.50344
351.297	11064.18377
351.619	11091.66491
351.942	11138.78589
352.264	11297.94677
352.587	11337.28378
352.909	11404.19913
353.231	11418.96768
353.554	11311.71276
353.876	11294.01401
354.198	11455.40982
354.52	11597.43672
354.842	11582.62619
355.164	11643.86966
355.486	11657.70882
355.808	11491.87152
356.13	11564.85875
356.452	11714.0943
356.773	11728.94374
357.095	11694.30238
357.417	11627.07002
357.738	11536.24505
358.06	11644.85805
358.381	11682.43119
358.703	11617.19041
359.024	11683.42034
359.346	11667.59628
359.667	11806.24055
359.988	11809.21628
360.309	11866.78942
360.631	11968.24596
360.952	11970.23808
361.273	11963.26612
361.594	12076.98314
361.915	12326.77724
362.236	12384.25798
362.557	12371.13799
362.878	12351.97366
363.198	12194.10156
363.519	12212.15886
363.84	12391.32516
364.16	12460.07217
364.481	12438.82305
364.802	12282.48535
365.122	12418.60116
365.443	12476.27316
365.763	12313.6839
366.083	12300.59654
366.404	12257.34957
366.724	12261.36985
367.044	12225.20695
367.364	12063.99622
367.685	12022.07279
368.005	12048.01926
368.325	12123.97888
368.645	12188.08483
368.965	12096.97302
369.284	12093.97376
369.604	12176.05491
369.924	12262.37501
370.244	12451.97531
370.564	12538.12923
370.883	12556.40932
371.203	12510.73266
371.522	12587.92138
371.842	12882.51286
372.161	12916.48145
372.481	12791.11919
372.8	12820.86403
373.119	12889.71467
373.439	13005.20945
373.758	12873.25628
374.077	12627.61934
374.396	12640.8654
374.715	12610.3077
375.034	12452.98729
375.353	12081.97947
375.672	11599.41176
375.991	11102.46224
376.31	10627.67074
376.629	10396.03181
376.948	10617.86009
377.266	11009.23281
377.585	11336.30014
377.904	11803.26504
378.222	12264.38542
378.541	12719.46131
378.859	13178.32207
379.178	13309.59675
379.496	13172.08454
379.814	12895.88921
380.133	12644.94246
380.451	12719.46131
380.769	12534.0687
381.087	12364.07593
381.405	12511.74685
381.723	12553.36176
382.041	12552.34598
382.359	12502.62056
382.677	12586.90427
382.995	12810.60335
383.313	12750.1476
383.631	12668.39796
383.949	12686.76921
384.266	12827.02237
384.584	13048.64725
384.901	12945.33744
385.219	12928.84448
385.537	12911.33189
385.854	12833.18217
386.171	12940.1823
386.489	13158.57435
386.806	13215.77397
387.123	13052.78774
387.441	12960.80885
387.758	12953.58775
388.075	12783.9445
388.392	12618.45293
388.709	12651.05925
389.026	12606.23604
389.343	12552.34598
389.66	12829.07548
389.977	12985.58161
390.294	12805.47452
390.61	12985.58161
390.927	13244.93434
391.244	13079.71585
391.56	12965.96796
391.877	12868.11515
392.193	12814.70713
392.51	12854.75292
392.826	12725.59566
393.143	12801.37219
393.459	12962.87237
393.775	12950.49359
394.092	12928.84448
394.408	13008.30988
394.724	13157.53536
395.04	13116.00562
395.356	13117.04314
395.672	13425.6584
395.988	13580.89646
396.304	13725.98515
396.62	13778.59334
396.936	13811.21264
397.252	13935.33048
397.567	14021.46453
397.883	14130.43833
398.199	13950.04573
398.514	13803.84705
398.83	13781.75005
399.146	13621.8753
399.461	13716.51692
399.777	13893.27116
400.092	13861.71495
400.407	13717.56892
400.723	13437.17878
401.038	13126.38253
401.353	13109.78125
401.668	13120.15594
401.983	12974.2246
402.298	12836.26262
402.613	12788.04408
402.928	12756.28922
403.243	12573.68546
403.558	12557.42525
403.873	12720.4836
404.188	12755.26552
404.503	12708.21875
404.817	12772.67398
405.132	12849.61541
405.447	12971.12807
405.761	12796.24519
406.076	12696.98107
406.39	12870.17148
406.705	12926.78357
407.019	13086.97011
407.334	13136.76314
407.648	12929.87499
407.962	12686.76921
408.276	12772.67398
408.591	12860.91926
408.905	12881.48419
409.219	13211.6104
409.533	13065.21289
409.847	12916.48145
410.161	13231.39226
410.475	13304.37743
410.789	13230.3508
411.102	13026.9198
411.416	13009.34343
411.73	13198.08267
412.044	13280.37885
412.357	13039.3334
412.671	12833.18217
412.984	13060.03508
413.298	13096.29975
413.611	12996.94337
413.925	12951.52493
414.238	12858.86365
414.552	12915.45146
414.865	12829.07548
415.178	12709.2406
415.491	12685.74824
415.804	12591.9902
416.118	12517.83277
416.431	12306.63612
416.744	12256.34459
417.057	12431.74369
417.37	12501.60672
417.683	12281.47951
417.995	12150.0061
418.308	12118.97608
418.621	12228.21885
418.934	12124.97953
419.246	12122.97825
419.559	12469.18404
419.872	12715.37254
420.184	12893.83087
420.497	12842.4246
420.809	12946.36859
421.121	12739.91481
421.434	12614.38
421.746	12839.34343
422.058	12682.68558
422.371	12334.83766
422.683	12131.98498
422.995	11973.22648
423.307	12038.03751
423.619	12171.04383
423.931	12046.02267
424.243	12073.98571
424.555	12077.98235
424.867	11860.82976
425.179	11704.1973
425.491	11643.86966
425.802	11653.75439
426.114	11573.74177
426.426	11426.84547
426.737	11439.64873
427.049	11528.35407
427.361	11518.49179
427.672	11529.34038
427.984	11440.63369
428.295	11459.35066
428.606	11394.35505
428.918	11134.85859
429.229	11353.02357
429.54	11345.15331
429.851	11033.76279
430.163	10902.30607
430.474	10863.07331
430.785	11099.51745
431.096	11295.98037
431.407	11171.1903
431.718	11056.33276
432.029	10946.44626
432.339	10982.74312
432.65	11093.62801
432.961	10973.91378
433.272	10896.42101
433.582	11067.12799
433.893	11034.74404
434.204	10887.59353
434.514	10899.36354
434.825	10897.40185
435.135	10861.11172
435.446	10958.21778
435.756	11159.40599
436.066	11225.21589
436.377	11200.6558
436.687	11178.06497
436.997	11120.13214
437.307	11149.58652
437.617	11150.56844
437.927	10908.19119
438.237	11005.30824
438.547	11098.53586
438.857	11112.27861
439.167	11420.93705
439.477	11334.3329
439.787	11341.21845
440.097	11473.14542
440.407	11314.66289
440.716	11180.02923
441.026	11138.78589
441.336	11187.88656
441.645	11000.40262
441.955	10854.24619
442.264	11017.08213
442.574	11169.22618
442.883	10972.93276
443.192	10771.8612
443.502	10912.11464
443.811	10934.67511
444.12	10859.15014
444.429	10719.87846
444.739	10590.3886
445.048	10574.6894
445.357	10539.36266
445.666	10634.53802
445.975	10642.38616
446.284	10577.63307
446.593	10477.52753
446.901	10361.65439
447.21	10471.63749
447.519	10463.78383
447.828	10367.54819
448.136	10472.61918
448.445	10676.71985
448.754	10624.72758
449.062	10534.45576
449.371	10475.5642
449.679	10610.99246
449.988	10892.49767
450.296	11142.7133
450.605	11568.80659
450.913	11948.33072
451.221	12344.9164
451.529	12603.18271
451.838	12294.55822
452.146	11796.32299
452.454	11836.00742
452.762	12025.06561
453.07	11701.22861
453.378	11314.66289
453.686	11200.6558
453.994	11255.67794
454.302	11111.29695
454.609	10762.05335
454.917	10607.06803
455.225	10497.15971
455.533	10451.02093
455.84	10472.61918
456.148	10500.10437
456.455	10265.35577
456.763	10160.13532
457.07	10414.6908
457.378	10508.93811
457.685	10526.60449
457.993	10485.38063
458.3	10531.51156
458.607	10750.28382
458.915	10812.07287
459.222	10851.30384
459.529	10955.27486
459.836	11043.57552
460.143	10803.24595
460.45	10551.13881
460.757	10523.66019
461.064	10497.15971
461.371	10484.39901
461.678	10570.76445
461.985	10769.89963
462.292	10917.99988
462.598	11243.88515
462.905	11606.32498
463.212	11863.80948
463.518	12013.0959
463.825	12190.09028
464.131	12704.13176
464.438	12850.64284
464.744	12393.34468
465.051	12196.1074
465.357	12277.45647
465.664	12162.02593
465.97	11766.58411
466.276	11546.11026
466.582	11445.55871
466.889	11395.3394
467.195	11607.31266
467.501	12116.97518
467.807	12947.39978
468.113	13695.47847
468.419	14370.54086
468.725	14766.63328
469.031	15089.82357
469.337	15248.85571
469.642	14983.75259
469.948	14693.78994
470.254	14577.76866
470.56	14196.23838
470.865	13449.75003
471.171	13109.78125
471.477	12919.57167
471.782	12434.77747
472.088	11922.4571
472.393	11971.23419
472.698	11786.40775
473.004	11430.78469
473.309	11664.62983
473.614	11940.36768
473.92	12274.43956
474.225	12439.83454
474.53	12404.45468
474.835	12306.63612
475.14	12039.03555
475.445	11798.30632
475.75	11379.59132
476.055	10964.10369
476.36	10793.43825
476.665	10402.90642
476.97	10068.60898
477.275	10197.51324
477.58	10260.44082
477.885	10196.52976
478.189	10078.45394
478.494	9943.50301
478.799	9830.09398
479.103	9893.22341
479.408	9823.18692
479.712	9821.21339
480.017	10103.0627
480.321	10229.96406
480.625	10292.87628
480.93	10598.23786
481.234	11189.85097
481.538	11566.83264
481.843	11837.99264
482.147	12092.97407
482.451	12159.02054
482.755	12357.01564
483.059	12527.97906
483.363	12570.6359
483.667	12744.00744
483.971	12820.86403
484.275	12611.32572
484.579	12742.98422
484.883	13065.21289
485.187	12947.39978
485.49	12774.7228
485.794	12655.13791
486.098	12603.18271
486.401	12425.67712
486.705	12186.07952
487.009	12147.00187
487.312	12258.35459
487.616	12272.42845
487.919	12008.10974
488.222	11857.85027
488.526	11873.7435
488.829	11898.58963
489.132	11958.28697
489.436	11696.2812
489.739	11632.99868
490.042	11983.18962
490.345	12061.99869
490.648	11879.70512
490.951	11790.37357
491.254	11856.85715
491.557	12058.00397
491.86	12182.06929
492.163	12561.48936
492.466	12968.03188
492.769	13292.89773
493.072	13652.3611
493.375	13802.79482
493.677	13913.25196
493.98	13918.50931
494.283	13662.87588
494.585	13429.84726
494.888	13242.85057
495.19	12920.60182
495.493	12790.09411
495.795	12563.52165
496.098	12336.85312
496.4	12186.07952
496.702	12070.98855
497.005	12151.00758
497.307	11926.43648
497.609	11809.21628
497.911	12009.10692
498.213	11833.02976
498.515	11712.11473
498.818	11759.64797
499.12	11789.38208
499.422	11707.16618
499.723	11671.55181
500.025	11824.09809
500.327	11812.19221
500.629	11951.31731
500.931	12003.1243
501.233	11702.21815
501.534	11631.02238
501.836	11699.24958
502.138	11840.97066
502.439	11903.56078
502.741	11882.68627
503.042	11879.70512
503.344	11828.06748
503.645	12038.03751
503.947	11948.33072
504.248	11878.71145
504.55	11987.17565
504.851	12017.08534
505.152	12024.06797
505.453	11783.43362
505.755	11788.39061
506.056	11837.99264
506.357	11864.80277
506.658	11936.3868
506.959	11890.63713
507.26	12007.1126
507.561	11877.71781
507.862	11722.0134
508.163	11779.46844
508.464	11576.70308
508.764	11587.56259
509.065	11585.58797
509.366	11652.76583
509.667	11771.53917
509.967	11616.20255
510.268	11542.16398
510.569	11645.84645
510.869	11661.66357
511.17	11431.76952
511.47	11381.55966
511.771	11545.12366
512.071	11634.97505
512.371	11471.17456
512.672	11352.03975
512.972	11375.6548
513.272	11332.3657
513.573	11231.11111
513.873	11413.0599
514.173	11386.48071
514.473	11272.3867
514.773	11278.28458
515.073	11134.85859
515.373	11086.75725
515.673	11047.50074
515.973	10970.97072
516.273	11051.42604
516.573	11055.35141
516.873	10905.24863
517.172	10923.88518
517.472	10908.19119
517.772	10884.65106
518.072	10869.9389
518.371	10855.22698
518.671	10723.80181
