Data from white_1_6_ST026791__124__22483.txt Node

Date: Tue Aug 19 16:20:20 AEST 2025
User: mathewyoussef
Spectrometer: ST02679
Trigger mode: 0
Integration Time (sec): 6.653700E-1
Scans to average: 1
Nonlinearity correction enabled: true
Boxcar width: 0
Storing dark spectrum: false
XAxis mode: Wavelengths
Number of Pixels in Spectrum: 1516
>>>>>Begin Spectral Data<<<<<
187.304	597.97173
187.653	605.39171
188.002	618.10366
188.351	625.51436
188.7	632.92172
189.048	637.15301
189.397	675.18714
189.746	636.09528
190.094	578.87566
190.443	600.09208
190.791	602.21215
191.14	605.39171
191.488	599.03194
191.837	569.31875
192.185	545.93185
192.533	566.13178
192.881	627.63109
193.229	635.0375
193.577	630.80567
193.925	637.15301
194.273	591.60898
194.621	584.18248
194.969	618.10366
195.317	612.80824
195.664	601.15215
196.012	615.9857
196.359	573.56701
196.707	561.88144
197.054	615.9857
197.402	630.80567
197.749	619.16254
198.096	613.86746
198.443	628.68935
198.791	606.45143
199.138	557.62989
199.485	565.06931
199.832	613.86746
200.179	658.29348
200.525	631.86373
200.872	618.10366
201.219	614.92662
201.566	618.10366
201.912	622.33876
202.259	610.68958
202.605	580.99861
202.952	558.69289
203.298	588.42663
203.644	615.9857
203.991	629.74755
204.337	595.8511
204.683	586.3047
205.029	604.33193
205.375	601.15215
205.721	648.78353
206.067	662.51844
206.413	651.95411
206.759	626.57276
207.104	605.39171
207.45	626.57276
207.796	603.27207
208.141	596.91145
208.487	622.33876
208.832	626.57276
209.177	604.33193
209.523	596.91145
209.868	569.31875
210.213	582.05997
210.558	605.39171
210.903	603.27207
211.248	586.3047
211.593	593.73018
211.938	626.57276
212.283	632.92172
212.628	611.74894
212.973	611.74894
213.317	610.68958
213.662	604.33193
214.007	617.04472
214.351	597.97173
214.696	613.86746
215.04	609.63015
215.384	606.45143
215.729	613.86746
216.073	614.92662
216.417	633.97964
216.761	627.63109
217.105	647.72654
217.449	656.18062
217.793	614.92662
218.137	567.19418
218.481	622.33876
218.824	692.06461
219.168	660.40609
219.512	609.63015
219.855	587.3657
220.199	600.09208
220.542	607.51107
220.886	612.80824
221.229	586.3047
221.572	580.99861
221.916	619.16254
222.259	617.04472
222.602	596.91145
222.945	595.8511
223.288	580.99861
223.631	600.09208
223.974	614.92662
224.317	586.3047
224.659	601.15215
225.002	615.9857
225.345	599.03194
225.687	608.57064
226.03	617.04472
226.372	594.79068
226.715	597.97173
227.057	603.27207
227.4	605.39171
227.742	599.03194
228.084	588.42663
228.426	594.79068
228.768	618.10366
229.11	610.68958
229.452	575.69069
229.794	580.99861
230.136	574.62889
230.478	589.48748
230.82	610.68958
231.161	589.48748
231.503	650.89731
231.845	666.74236
232.186	662.51844
232.528	659.34982
232.869	578.87566
233.21	571.44303
233.552	599.03194
233.893	580.99861
234.234	576.75242
234.575	604.33193
234.916	645.61237
235.257	653.01083
235.598	615.9857
235.939	602.21215
236.28	620.22135
236.621	627.63109
236.961	665.68648
237.302	676.24245
237.643	612.80824
237.983	611.74894
238.324	625.51436
238.664	664.63053
239.005	640.32577
239.345	578.87566
239.685	615.9857
240.025	623.39736
240.366	593.73018
240.706	597.97173
241.046	623.39736
241.386	606.45143
241.726	601.15215
242.066	609.63015
242.405	591.60898
242.745	599.03194
243.085	603.27207
243.425	600.09208
243.764	633.97964
244.104	701.55124
244.443	679.40801
244.783	604.33193
245.122	603.27207
245.461	619.16254
245.801	605.39171
246.14	578.87566
246.479	576.75242
246.818	592.66961
247.157	635.0375
247.496	627.63109
247.835	589.48748
248.174	584.18248
248.513	588.42663
248.852	686.79211
249.19	691.01024
249.529	602.21215
249.868	594.79068
250.206	609.63015
250.545	630.80567
250.883	637.15301
251.221	608.57064
251.56	603.27207
251.898	606.45143
252.236	600.09208
252.574	595.8511
252.912	587.3657
253.25	596.91145
253.588	618.10366
253.926	644.55518
254.264	637.15301
254.602	629.74755
254.94	617.04472
255.278	594.79068
255.615	590.54827
255.953	559.75581
256.29	585.24363
256.628	617.04472
256.965	580.99861
257.303	558.69289
257.64	618.10366
257.977	657.23708
258.314	605.39171
258.652	588.42663
258.989	628.68935
259.326	642.44061
259.663	638.21066
260	613.86746
260.337	600.09208
260.673	600.09208
261.01	605.39171
261.347	617.04472
261.684	565.06931
262.02	574.62889
262.357	623.39736
262.693	611.74894
263.03	612.80824
263.366	626.57276
263.702	621.28009
264.039	621.28009
264.375	592.66961
264.711	575.69069
265.047	590.54827
265.383	594.79068
265.719	602.21215
266.055	623.39736
266.391	663.57452
266.727	648.78353
267.063	599.03194
267.399	570.38093
267.734	577.81408
268.07	594.79068
268.405	607.51107
268.741	624.4559
269.076	606.45143
269.412	579.93717
269.747	590.54827
270.082	618.10366
270.418	612.80824
270.753	620.22135
271.088	614.92662
271.423	607.51107
271.758	625.51436
272.093	631.86373
272.428	610.68958
272.763	594.79068
273.098	595.8511
273.433	595.8511
273.767	600.09208
274.102	583.12126
274.436	573.56701
274.771	611.74894
275.106	597.97173
275.44	590.54827
275.774	624.4559
276.109	618.10366
276.443	630.80567
276.777	623.39736
277.111	622.33876
277.445	637.15301
277.78	632.92172
278.114	644.55518
278.447	621.28009
278.781	602.21215
279.115	623.39736
279.449	625.51436
279.783	637.15301
280.116	631.86373
280.45	589.48748
280.784	610.68958
281.117	659.34982
281.451	639.26825
281.784	713.13934
282.117	740.50098
282.451	648.78353
282.784	628.68935
283.117	663.57452
283.45	677.2977
283.783	641.38322
284.116	626.57276
284.449	688.9013
284.782	741.55257
285.115	729.98193
285.448	707.87292
285.781	687.84674
286.114	680.46307
286.446	715.24549
286.779	796.15888
287.111	798.25622
287.444	788.81654
287.776	813.97967
288.109	805.59527
288.441	770.97429
288.773	770.97429
289.106	886.16446
289.438	908.0897
289.77	896.6075
290.102	947.71525
290.434	937.29339
290.766	1090.1071
291.098	1130.52249
291.43	1066.24907
291.762	1061.06017
292.094	1082.84784
292.425	1121.20015
292.757	1134.66494
293.089	1211.21461
293.42	1214.31469
293.752	1230.84431
294.083	1326.79268
294.414	1395.79061
294.746	1421.51134
295.077	1431.79603
295.408	1473.9425
295.74	1624.79995
296.071	1663.73814
296.402	1622.74994
296.733	1685.24695
297.064	1699.58242
297.395	1763.03321
297.726	1819.27424
298.056	1951.02469
298.387	2054.02866
298.718	2058.1054
299.049	2127.37979
299.379	2084.59939
299.71	2167.0851
300.04	2283.04034
300.371	2276.94139
300.701	2290.15523
301.031	2352.13096
301.362	2456.67415
301.692	2536.76766
302.022	2519.53903
302.352	2537.78099
302.682	2645.12137
303.012	2720.981
303.342	2800.80521
303.672	2887.60579
304.002	2974.30364
304.332	3061.90321
304.662	3132.30681
304.992	3127.28033
305.321	3141.35356
305.651	3219.70933
305.98	3322.0401
306.31	3401.19101
306.639	3407.19871
306.969	3441.23232
307.298	3507.24894
307.628	3631.10744
307.957	3729.83433
308.286	3733.82035
308.615	3861.25358
308.944	4094.63255
309.273	4087.69125
309.602	4032.13834
309.931	4194.71805
310.26	4263.02279
310.589	4333.25039
310.918	4457.74564
311.247	4607.72221
311.575	4603.77814
311.904	4594.90348
312.233	4808.70017
312.561	4823.46599
312.89	4861.85034
313.218	5101.80975
313.546	5147.01885
313.875	5054.62666
314.203	5051.67741
314.531	5169.62077
314.859	5316.00874
315.188	5316.99106
315.516	5347.44224
315.844	5482.98912
316.172	5564.51323
316.5	5651.93767
316.827	5704.00541
317.155	5732.4978
317.483	5767.87049
317.811	5766.88787
318.138	5907.43393
318.466	6062.81411
318.794	6140.54861
319.121	6141.5328
319.449	6103.1533
319.776	6172.04543
320.103	6257.7069
320.431	6376.92211
320.758	6476.50598
321.085	6459.73946
321.412	6513.00481
321.739	6580.10913
322.066	6619.59789
322.393	6633.42173
322.72	6735.17045
323.047	6870.62982
323.374	6989.39703
323.701	7030.99112
324.028	7068.63516
324.354	7228.24345
324.681	7326.47773
325.008	7383.06635
325.334	7336.40403
325.661	7339.38205
325.987	7465.50388
326.314	7625.52665
326.64	7585.75631
326.966	7599.67499
327.293	7588.7388
327.619	7562.89216
327.945	7774.73365
328.271	7837.42895
328.597	7751.84878
328.923	7796.62552
329.249	7889.1882
329.575	7836.43367
329.901	7824.4906
330.227	7969.8299
330.552	8056.46351
330.878	8086.34066
331.204	8028.57966
331.529	7927.01776
331.855	8039.53385
332.18	8251.68023
332.506	8261.64096
332.831	8273.59386
333.156	8449.8899
333.482	8475.78335
333.807	8494.7047
334.132	8613.19287
334.457	8629.12103
334.782	8636.08935
335.107	8734.62243
335.432	8707.75346
335.757	8782.38188
336.082	8946.46921
336.407	8995.16892
336.732	8985.2314
337.057	9053.78739
337.381	9151.10172
337.706	9136.21107
338.031	9053.78739
338.355	9096.49479
338.68	9182.86292
339.004	9019.01643
339.329	9108.41086
339.653	9258.26464
339.977	9228.50614
340.301	9289.00758
340.626	9372.27156
340.95	9415.8623
341.274	9383.1708
341.598	9324.6993
341.922	9441.61262
342.246	9697.79437
342.57	9736.31665
342.894	9697.79437
343.218	9746.19188
343.541	9827.13386
343.865	9883.3619
344.189	9941.5317
344.512	10113.88892
344.836	10227.99758
345.159	10235.86333
345.483	10169.97271
345.806	10096.17277
346.13	10203.414
346.453	10219.14803
346.776	10159.15154
347.099	10451.02093
347.423	10424.5105
347.746	10268.30466
348.069	10469.67411
348.392	10569.78321
348.715	10539.36266
349.038	10563.89565
349.361	10546.23215
349.683	10532.49296
350.006	10681.62443
350.329	10758.13019
350.652	10786.57285
350.974	10898.38269
351.297	10875.82373
351.619	10844.43836
351.942	11100.49904
352.264	11223.25089
352.587	11168.24413
352.909	11098.53586
353.231	10996.47819
353.554	11162.35197
353.876	11336.30014
354.198	11428.81505
354.52	11526.38148
354.842	11512.57519
355.164	11439.64873
355.486	11495.81455
355.808	11524.40896
356.13	11475.11633
356.452	11509.6171
356.773	11481.02943
357.095	11359.91067
357.417	11430.78469
357.738	11579.66456
358.06	11575.71596
358.381	11528.35407
358.703	11509.6171
359.024	11535.25862
359.346	11550.05681
359.667	11659.68616
359.988	11711.12498
360.309	11742.80757
360.631	11774.51248
360.952	11827.0751
361.273	11784.42497
361.594	11844.94169
361.915	12140.99426
362.236	12222.19535
362.557	12262.37501
362.878	12336.85312
363.198	12112.97376
363.519	12023.07037
363.84	12189.08754
364.16	12115.97478
364.481	12100.97246
364.802	12124.97953
365.122	12138.99197
365.443	12167.03555
365.763	12089.97517
366.083	12092.97407
366.404	12040.03362
366.724	12050.01596
367.044	12109.97302
367.364	12004.12133
367.685	11950.32176
368.005	11857.85027
368.325	11839.97796
368.645	12111.97348
368.965	12197.11036
369.284	12047.02095
369.604	12051.01436
369.924	12178.05957
370.244	12361.04987
370.564	12414.55857
370.883	12469.18404
371.203	12582.83623
371.522	12519.86172
371.842	12796.24519
372.161	12906.18333
372.481	12553.36176
372.8	12644.94246
373.119	12827.02237
373.439	12818.81157
373.758	12879.42697
374.077	12840.37045
374.396	12768.57682
374.715	12618.45293
375.034	12310.66321
375.353	11968.24596
375.672	11615.21471
375.991	11014.1386
376.31	10557.02667
376.629	10413.7088
376.948	10537.39991
377.266	10948.40815
377.585	11199.6735
377.904	11665.61863
378.222	12262.37501
378.541	12740.9379
378.859	13137.80141
379.178	13272.03553
379.496	13201.20393
379.814	12842.4246
380.133	12648.00068
380.451	12646.98123
380.769	12411.52701
381.087	12249.31066
381.405	12300.59654
381.723	12449.95147
382.041	12512.76107
382.359	12532.03866
382.677	12553.36176
382.995	12648.00068
383.313	12639.84623
383.631	12620.48963
383.949	12785.99421
384.266	12847.56069
384.584	12941.21325
384.901	12955.65072
385.219	12825.99588
385.537	12871.19971
385.854	12866.05898
386.171	12851.6703
386.489	13071.42753
386.806	12989.71261
387.123	12862.97503
387.441	12978.35387
387.758	13020.71509
388.075	12921.63201
388.392	12662.2771
388.709	12478.29897
389.026	12491.47043
389.343	12539.14446
389.66	12762.43229
389.977	12886.62794
390.294	12724.57317
390.61	12952.55632
390.927	13274.12116
391.244	12975.25686
391.56	12814.70713
391.877	12840.37045
392.193	12735.82282
392.51	12851.6703
392.826	12774.7228
393.143	12700.04541
393.459	12778.82093
393.775	12762.43229
394.092	12739.91481
394.408	12808.5517
394.724	12939.15139
395.04	13127.42043
395.356	13094.22623
395.672	13281.42191
395.988	13530.4973
396.304	13558.84149
396.62	13691.27117
396.936	13871.18264
397.252	13962.65609
397.567	13877.49407
397.883	13929.02298
398.199	13989.96885
398.514	14016.21682
398.83	14043.49745
399.146	13765.96665
399.461	13663.92743
399.777	13648.15551
400.092	13537.84441
400.407	13532.59637
400.723	13349.2889
401.038	13084.89728
401.353	13023.81727
401.668	13004.17606
401.983	12950.49359
402.298	12937.08969
402.613	12814.70713
402.928	12630.67553
403.243	12456.02344
403.558	12628.63803
403.873	12867.08705
404.188	12762.43229
404.503	12675.54079
404.817	12690.85347
405.132	12770.62532
405.447	12848.58803
405.761	12701.06693
406.076	12596.05965
406.39	12742.98422
406.705	13005.20945
407.019	13100.44723
407.334	13003.1427
407.648	12987.64703
407.962	12839.34343
408.276	12669.41825
408.591	12631.69434
408.905	12758.33675
409.219	13098.37341
409.533	13137.80141
409.847	13051.75256
410.161	12997.97649
410.475	13118.08071
410.789	13126.38253
411.102	12816.75927
411.416	12809.5775
411.73	13176.24275
412.044	13284.55129
412.357	13061.07056
412.671	12942.24424
412.984	13051.75256
413.298	13006.24289
413.611	12878.39842
413.925	12963.9042
414.238	12922.66224
414.552	12874.28463
414.865	12800.34671
415.178	12722.5283
415.491	12606.23604
415.804	12451.97531
416.118	12399.40413
416.431	12408.49579
416.744	12447.92778
417.057	12398.39413
417.37	12375.17425
417.683	12234.24356
417.995	12148.00325
418.308	12257.34957
418.621	12274.43956
418.934	12048.01926
419.246	12218.18035
419.559	12587.92138
419.872	12700.04541
420.184	12898.97702
420.497	12830.10209
420.809	12839.34343
421.121	12683.70643
421.434	12501.60672
421.746	12718.43906
422.058	12762.43229
422.371	12463.10912
422.683	12232.23519
422.995	12012.09861
423.307	11956.29551
423.619	12021.07524
423.931	12028.05869
424.243	12039.03555
424.555	11863.80948
424.867	11826.08274
425.179	11698.2601
425.491	11588.54992
425.802	11499.75783
426.114	11401.24577
426.426	11476.10181
426.737	11551.04348
427.049	11599.41176
427.361	11576.70308
427.672	11504.68727
427.984	11340.23477
428.295	11355.97511
428.606	11440.63369
428.918	11248.79865
429.229	11313.6795
429.54	11391.40208
429.851	11171.1903
430.163	10908.19119
430.474	10706.14656
430.785	10899.36354
431.096	11090.68337
431.407	11039.65038
431.718	10974.8948
432.029	10791.47671
432.339	10820.89979
432.65	10970.97072
432.961	10864.05411
433.272	10870.9197
433.582	11021.98808
433.893	10933.69419
434.204	10886.61271
434.514	10932.71328
434.825	10796.38057
435.135	10769.89963
435.446	10961.16072
435.756	11155.47812
436.066	11193.77989
436.377	11135.84041
436.687	11226.19841
436.997	11180.02923
437.307	11116.20533
437.617	11203.60274
437.927	11119.15043
438.237	11060.25823
438.547	11116.20533
438.857	11165.29802
439.167	11368.76636
439.477	11315.64628
439.787	11223.25089
440.097	11246.83323
440.407	11189.85097
440.716	10994.516
441.026	10962.14171
441.336	11169.22618
441.645	11055.35141
441.955	10796.38057
442.264	10800.30365
442.574	11100.49904
442.883	11078.90529
443.192	10919.96164
443.502	10900.34438
443.811	10914.07638
444.12	10884.65106
444.429	10642.38616
444.739	10461.82036
445.048	10502.06746
445.357	10461.82036
445.666	10603.14354
445.975	10681.62443
446.284	10441.20271
446.593	10386.21044
446.901	10369.51274
447.21	10399.96019
447.519	10350.8485
447.828	10231.93051
448.136	10370.49501
448.445	10622.76546
448.754	10646.31017
449.062	10516.79001
449.371	10539.36266
449.679	10679.66261
449.988	10852.28462
450.296	11172.17237
450.605	11542.16398
450.913	11950.32176
451.221	12338.86873
451.529	12453.9993
451.838	12196.1074
452.146	11734.88486
452.454	11661.66357
452.762	11851.89195
453.07	11479.05834
453.378	11196.72666
453.686	11264.52341
453.994	11372.70254
454.302	11173.15445
454.609	10586.46389
454.917	10420.58269
455.225	10357.72507
455.533	10259.45781
455.84	10261.42382
456.148	10316.46098
456.455	10217.18138
456.763	10266.33874
457.07	10585.4827
457.378	10593.3321
457.685	10445.13006
457.993	10373.44177
458.3	10466.72899
458.607	10672.79615
458.915	10834.6306
459.222	10986.66736
459.529	10867.9773
459.836	10825.80364
460.143	10733.61007
460.45	10502.06746
460.757	10479.49083
461.064	10490.28867
461.371	10555.06406
461.678	10520.71586
461.985	10621.78439
462.292	11022.96928
462.598	11436.69392
462.905	11630.03426
463.212	11779.46844
463.518	12046.02267
463.825	12216.17305
464.131	12587.92138
464.438	12775.74727
464.744	12350.96537
465.051	12169.03963
465.357	12286.50909
465.664	12191.09305
465.97	11759.64797
466.276	11595.46175
466.582	11534.27221
466.889	11483.00059
467.195	11679.46384
467.501	12067.99166
467.807	12923.69252
468.113	13672.34015
468.419	14333.36258
468.725	14885.28677
469.031	15256.2087
469.337	15320.79319
469.642	15037.76093
469.948	14718.51002
470.254	14540.35386
470.56	14114.74518
470.865	13456.03701
471.171	13023.81727
471.477	12640.8654
471.782	12319.72623
472.088	12043.02802
472.393	11968.24596
472.698	11677.48572
473.004	11361.87852
473.309	11575.71596
473.614	11974.22267
473.92	12335.84537
474.225	12476.27316
474.53	12289.52725
474.835	12272.42845
475.14	12023.07037
475.445	11679.46384
475.75	11324.49734
476.055	10937.61786
476.36	10793.43825
476.665	10471.63749
476.97	10169.97271
477.275	10197.51324
477.58	10318.4262
477.885	10331.19947
478.189	10157.18395
478.494	10012.47643
478.799	9919.84494
479.103	9882.3757
479.408	9873.49949
479.712	9870.54058
480.017	10033.16009
480.321	10289.92791
480.625	10357.72507
480.93	10549.17616
481.234	11036.70656
481.538	11460.3359
481.843	11819.13689
482.147	12029.05644
482.451	12247.30127
482.755	12517.83277
483.059	12612.34377
483.363	12559.45723
483.667	12776.77178
483.971	12828.04891
484.275	12679.62329
484.579	12859.89143
484.883	12917.51148
485.187	12725.59566
485.49	12611.32572
485.794	12525.9495
486.098	12524.93477
486.401	12347.94073
486.705	12152.00909
487.009	12053.01124
487.312	12028.05869
487.616	12062.99744
487.919	11941.36296
488.222	11891.6311
488.526	11866.78942
488.829	11900.57801
489.132	11941.36296
489.436	11709.14554
489.739	11728.94374
490.042	11930.41629
490.345	11905.54942
490.648	11878.71145
490.951	11873.7435
491.254	12021.07524
491.557	12155.0138
491.86	12188.08483
492.163	12517.83277
492.466	12909.27234
492.769	13310.64071
493.072	13567.24245
493.375	13698.63404
493.677	13912.20044
493.98	13819.63034
494.283	13468.61365
494.585	13299.15891
494.888	13023.81727
495.19	12651.05925
495.493	12521.89082
495.795	12342.90037
496.098	12158.01881
496.4	12142.99667
496.702	11992.15883
497.005	12030.05422
497.307	12144.9992
497.609	11956.29551
497.911	11914.4996
498.213	11904.55508
498.515	11837.00002
498.818	11763.61135
499.12	11737.85572
499.422	11593.48685
499.723	11616.20255
500.025	11810.20823
500.327	11673.5297
500.629	11648.81178
500.931	11807.23244
501.233	11705.18691
501.534	11543.15052
501.836	11562.88494
502.138	11784.42497
502.439	11896.60135
502.741	11821.1213
503.042	11827.0751
503.344	11837.99264
503.645	12061.99869
503.947	11958.28697
504.248	11897.59547
504.55	11988.17223
504.851	11936.3868
505.152	11910.52148
505.453	11815.16836
505.755	11986.1791
506.056	11843.9489
506.357	11723.99339
506.658	11812.19221
506.959	11837.99264
507.26	11885.66765
507.561	11723.99339
507.862	11701.22861
508.163	11763.61135
508.464	11800.28974
508.764	11853.87795
509.065	11660.67485
509.366	11535.25862
509.667	11679.46384
509.967	11744.78847
510.268	11575.71596
510.569	11516.51953
510.869	11471.17456
511.17	11404.19913
511.47	11409.12165
511.771	11359.91067
512.071	11561.89806
512.371	11585.58797
512.672	11364.83038
512.972	11248.79865
513.272	11239.95452
513.573	11201.6381
513.873	11111.29695
514.173	11161.36997
514.473	11224.23339
514.773	11217.3561
515.073	11126.02255
515.373	11167.26208
515.673	11187.88656
515.973	11074.97944
516.273	11023.95049
516.573	10972.93276
516.873	10806.18826
517.172	10892.49767
517.472	10908.19119
517.772	10723.80181
518.072	10807.16903
518.371	10918.98075
518.671	10769.89963
518.97	10696.33785
