Data from white_1_6_ST026791__130__22489.txt Node

Date: Tue Aug 19 16:20:28 AEST 2025
User: mathewyoussef
Spectrometer: ST02679
Trigger mode: 0
Integration Time (sec): 6.653700E-1
Scans to average: 1
Nonlinearity correction enabled: true
Boxcar width: 0
Storing dark spectrum: false
XAxis mode: Wavelengths
Number of Pixels in Spectrum: 1516
>>>>>Begin Spectral Data<<<<<
187.304	572.50506
187.653	614.92662
188.002	641.38322
188.351	606.45143
188.7	594.79068
189.048	609.63015
189.397	631.86373
189.746	624.4559
190.094	620.22135
190.443	595.8511
190.791	588.42663
191.14	600.09208
191.488	592.66961
191.837	590.54827
192.185	595.8511
192.533	595.8511
192.881	588.42663
193.229	595.8511
193.577	605.39171
193.925	600.09208
194.273	576.75242
194.621	607.51107
194.969	622.33876
195.317	586.3047
195.664	608.57064
196.012	603.27207
196.359	590.54827
196.707	586.3047
197.054	574.62889
197.402	592.66961
197.749	586.3047
198.096	591.60898
198.443	593.73018
198.791	583.12126
199.138	586.3047
199.485	595.8511
199.832	578.87566
200.179	562.94414
200.525	583.12126
200.872	562.94414
201.219	576.75242
201.566	647.72654
201.912	639.26825
202.259	607.51107
202.605	589.48748
202.952	582.05997
203.298	589.48748
203.644	597.97173
203.991	584.18248
204.337	591.60898
204.683	603.27207
205.029	590.54827
205.375	608.57064
205.721	658.29348
206.067	655.12409
206.413	627.63109
206.759	612.80824
207.104	577.81408
207.45	590.54827
207.796	633.97964
208.141	631.86373
208.487	606.45143
208.832	592.66961
209.177	592.66961
209.523	611.74894
209.868	588.42663
210.213	594.79068
210.558	606.45143
210.903	596.91145
211.248	587.3657
211.593	588.42663
211.938	596.91145
212.283	602.21215
212.628	593.73018
212.973	570.38093
213.317	572.50506
213.662	584.18248
214.007	625.51436
214.351	600.09208
214.696	579.93717
215.04	639.26825
215.384	651.95411
215.729	636.09528
216.073	621.28009
216.417	646.66949
216.761	614.92662
217.105	591.60898
217.449	625.51436
217.793	624.4559
218.137	594.79068
218.481	583.12126
218.824	646.66949
219.168	638.21066
219.512	589.48748
219.855	557.62989
220.199	553.37712
220.542	577.81408
220.886	610.68958
221.229	606.45143
221.572	572.50506
221.916	584.18248
222.259	593.73018
222.602	578.87566
222.945	576.75242
223.288	591.60898
223.631	589.48748
223.974	584.18248
224.317	586.3047
224.659	619.16254
225.002	639.26825
225.345	624.4559
225.687	609.63015
226.03	601.15215
226.372	594.79068
226.715	582.05997
227.057	569.31875
227.4	603.27207
227.742	631.86373
228.084	617.04472
228.426	601.15215
228.768	594.79068
229.11	595.8511
229.452	611.74894
229.794	639.26825
230.136	625.51436
230.478	610.68958
230.82	595.8511
231.161	593.73018
231.503	668.85394
231.845	675.18714
232.186	682.573
232.528	665.68648
232.869	568.25651
233.21	556.56681
233.552	590.54827
233.893	608.57064
234.234	603.27207
234.575	615.9857
234.916	629.74755
235.257	603.27207
235.598	580.99861
235.939	586.3047
236.28	600.09208
236.621	597.97173
236.961	614.92662
237.302	630.80567
237.643	569.31875
237.983	567.19418
238.324	590.54827
238.664	609.63015
239.005	602.21215
239.345	552.31374
239.685	587.3657
240.025	611.74894
240.366	587.3657
240.706	603.27207
241.046	621.28009
241.386	590.54827
241.726	579.93717
242.066	594.79068
242.405	586.3047
242.745	625.51436
243.085	625.51436
243.425	568.25651
243.764	613.86746
244.104	685.73743
244.443	673.07633
244.783	643.49793
245.122	595.8511
245.461	583.12126
245.801	588.42663
246.14	570.38093
246.479	591.60898
246.818	607.51107
247.157	622.33876
247.496	639.26825
247.835	627.63109
248.174	631.86373
248.513	619.16254
248.852	659.34982
249.19	667.79818
249.529	589.48748
249.868	592.66961
250.206	584.18248
250.545	589.48748
250.883	610.68958
251.221	591.60898
251.56	553.37712
251.898	556.56681
252.236	577.81408
252.574	590.54827
252.912	605.39171
253.25	558.69289
253.588	561.88144
253.926	613.86746
254.264	611.74894
254.602	606.45143
254.94	601.15215
255.278	587.3657
255.615	569.31875
255.953	589.48748
256.29	608.57064
256.628	585.24363
256.965	554.44043
257.303	572.50506
257.64	638.21066
257.977	628.68935
258.314	606.45143
258.652	586.3047
258.989	587.3657
259.326	614.92662
259.663	596.91145
260	588.42663
260.337	571.44303
260.673	568.25651
261.01	614.92662
261.347	613.86746
261.684	582.05997
262.02	606.45143
262.357	599.03194
262.693	562.94414
263.03	595.8511
263.366	607.51107
263.702	606.45143
264.039	590.54827
264.375	564.00676
264.711	595.8511
265.047	591.60898
265.383	582.05997
265.719	584.18248
266.055	573.56701
266.391	601.15215
266.727	615.9857
267.063	584.18248
267.399	577.81408
267.734	599.03194
268.07	594.79068
268.405	595.8511
268.741	621.28009
269.076	615.9857
269.412	590.54827
269.747	561.88144
270.082	572.50506
270.418	586.3047
270.753	602.21215
271.088	623.39736
271.423	606.45143
271.758	597.97173
272.093	597.97173
272.428	586.3047
272.763	596.91145
273.098	597.97173
273.433	615.9857
273.767	642.44061
274.102	613.86746
274.436	583.12126
274.771	605.39171
275.106	621.28009
275.44	596.91145
275.774	607.51107
276.109	605.39171
276.443	608.57064
276.777	606.45143
277.111	612.80824
277.445	607.51107
277.78	605.39171
278.114	639.26825
278.447	630.80567
278.781	585.24363
279.115	611.74894
279.449	637.15301
279.783	610.68958
280.116	629.74755
280.45	622.33876
280.784	631.86373
281.117	657.23708
281.451	627.63109
281.784	728.9297
282.117	751.01432
282.451	615.9857
282.784	593.73018
283.117	646.66949
283.45	667.79818
283.783	644.55518
284.116	631.86373
284.449	676.24245
284.782	705.76593
285.115	741.55257
285.448	759.42095
285.781	721.56251
286.114	715.24549
286.446	719.45707
286.779	798.25622
287.111	787.76742
287.444	712.08617
287.776	724.72023
288.109	824.4556
288.441	834.92653
288.773	828.64456
289.106	939.37809
289.438	895.5634
289.77	853.76185
290.102	914.35047
290.434	885.11991
290.766	1013.28091
291.098	1133.62938
291.43	1108.7664
291.762	1105.65725
292.094	1095.2913
292.425	1121.20015
292.757	1178.13153
293.089	1208.11429
293.42	1220.51411
293.752	1243.23703
294.083	1367.99739
294.414	1438.99412
294.746	1356.66968
295.077	1413.28211
295.408	1541.72128
295.74	1642.22249
296.071	1603.27156
296.402	1596.09383
296.733	1758.9413
297.064	1788.60256
297.395	1791.67029
297.726	1840.73707
298.056	1919.38365
298.387	2043.83594
298.718	2146.72573
299.049	2156.90603
299.379	2160.9778
299.71	2214.91042
300.04	2218.97941
300.371	2226.09969
300.701	2257.62514
301.031	2452.61669
301.362	2509.40282
301.692	2451.60229
302.022	2475.94435
302.352	2532.71419
302.682	2666.36956
303.012	2755.34604
303.342	2836.1433
303.672	2848.25535
304.002	3010.56482
304.332	3140.34843
304.662	3122.25349
304.992	3132.30681
305.321	3176.52417
305.651	3274.90668
305.98	3403.19363
306.31	3502.24993
306.639	3480.24989
306.969	3542.23178
307.298	3593.17466
307.628	3597.16857
307.957	3717.87493
308.286	3789.60068
308.615	3864.23756
308.944	4017.25123
309.273	4033.13071
309.602	4067.85552
309.931	4248.17866
310.26	4353.02274
310.589	4406.3867
310.918	4428.11884
311.247	4569.26159
311.575	4679.67784
311.904	4739.77258
312.233	4922.8526
312.561	4922.8526
312.89	4965.14798
313.218	5145.05339
313.546	5108.68988
313.875	5022.18275
314.203	5101.80975
314.531	5142.10517
314.859	5259.03133
315.188	5392.62582
315.516	5474.1493
315.844	5548.79742
316.172	5579.24702
316.5	5717.76012
316.827	5818.97067
317.155	5774.74891
317.483	5829.78138
317.811	5884.82393
318.138	5982.16011
318.466	6112.99343
318.794	6125.78639
319.121	6117.91369
319.449	6175.98293
319.776	6274.4506
320.103	6379.87906
320.431	6402.55096
320.758	6472.56073
321.085	6563.32993
321.412	6610.7119
321.739	6621.57264
322.066	6559.38219
322.393	6620.58526
322.72	6744.06489
323.047	6846.88944
323.374	6956.72523
323.701	7004.25055
324.028	7042.87756
324.354	7147.92038
324.681	7217.33267
325.008	7307.61957
325.334	7306.6271
325.661	7273.8794
325.987	7454.57601
326.314	7659.33777
326.64	7641.43705
326.966	7668.28871
327.293	7719.01786
327.619	7684.20245
327.945	7782.69411
328.271	7907.10692
328.597	7843.40069
328.923	7814.53845
329.249	7948.92102
329.575	7967.83853
329.901	7905.1159
330.227	8025.5922
330.552	8045.50896
330.878	8000.69742
331.204	8039.53385
331.529	8088.33252
331.855	8246.69986
332.18	8344.31446
332.506	8267.61741
332.831	8234.74701
333.156	8462.83677
333.482	8541.50685
333.807	8428.97513
334.132	8444.91025
334.457	8525.57477
334.782	8646.04379
335.107	8823.16812
335.432	8782.38188
335.757	8749.54833
336.082	8928.57592
336.407	8979.26858
336.732	8887.81213
337.057	8939.51093
337.381	9002.12482
337.706	8938.51687
338.031	9011.06767
338.355	9083.58458
338.68	9058.75401
339.004	8979.26858
339.329	9152.09437
339.653	9276.11632
339.977	9204.6943
340.301	9268.18256
340.626	9405.95678
340.95	9520.80699
341.274	9481.21691
341.598	9448.54438
341.922	9541.58603
342.246	9677.04576
342.57	9745.2044
342.894	9842.92018
343.218	9970.11217
343.541	9954.34456
343.865	9885.33428
344.189	9980.95109
344.512	10229.96406
344.836	10320.39139
345.159	10241.76234
345.483	10146.36165
345.806	10118.80959
346.13	10235.86333
346.453	10222.09794
346.776	10122.74599
347.099	10315.47836
347.423	10367.54819
347.746	10285.99666
348.069	10539.36266
348.392	10621.78439
348.715	10440.22086
349.038	10532.49296
349.361	10657.10097
349.683	10642.38616
350.006	10601.18128
350.329	10746.36061
350.652	10947.42721
350.974	10901.32523
351.297	10892.49767
351.619	10867.9773
351.942	11030.81905
352.264	11140.74958
352.587	11109.33364
352.909	11256.66073
353.231	11221.28593
353.554	11154.49617
353.876	11172.17237
354.198	11281.23365
354.52	11546.11026
354.842	11611.26354
355.164	11578.67738
355.486	11597.43672
355.808	11535.25862
356.13	11567.8196
356.452	11723.00339
356.773	11617.19041
357.095	11486.94307
357.417	11627.07002
357.738	11593.48685
358.06	11631.02238
358.381	11618.17829
358.703	11448.5139
359.024	11452.45434
359.346	11518.49179
359.667	11628.05808
359.988	11613.23909
360.309	11700.23908
360.631	11787.39917
360.952	11716.07395
361.273	11701.22861
361.594	11870.76303
361.915	12178.05957
362.236	12260.36473
362.557	12361.04987
362.878	12370.12901
363.198	12154.0122
363.519	12109.97302
363.84	12158.01881
364.16	12134.98779
364.481	12187.08216
364.802	12124.97953
365.122	12265.39068
365.443	12484.3773
365.763	12279.46792
366.083	12111.97348
366.404	12027.06096
366.724	12091.97441
367.044	12130.98411
367.364	12071.98757
367.685	12150.0061
368.005	11962.27024
368.325	11853.87795
368.645	12041.03172
368.965	12077.98235
369.284	11956.29551
369.604	12067.99166
369.924	12249.31066
370.244	12402.43435
370.564	12582.83623
370.883	12491.47043
371.203	12428.71024
371.522	12525.9495
371.842	12759.36058
372.161	12765.50437
372.481	12700.04541
372.8	12868.11515
373.119	12860.91926
373.439	12882.51286
373.758	12893.83087
374.077	12639.84623
374.396	12598.09461
374.715	12610.3077
375.034	12302.60959
375.353	11894.61317
375.672	11533.28581
375.991	11026.89413
376.31	10660.04387
376.629	10545.25081
376.948	10641.40516
377.266	11000.40262
377.585	11356.95899
377.904	11776.4948
378.222	12231.23105
378.541	12706.17517
378.859	13023.81727
379.178	13133.64857
379.496	13072.46344
379.814	12752.19465
380.133	12639.84623
380.451	12667.37772
380.769	12463.10912
381.087	12371.13799
381.405	12327.78466
381.723	12465.13394
382.041	12595.04223
382.359	12634.751
382.677	12630.67553
382.995	12672.47934
383.313	12678.60261
383.631	12562.50549
383.949	12640.8654
384.266	12882.51286
384.584	12964.93606
384.901	12859.89143
385.219	12813.68113
385.537	12856.80821
385.854	12808.5517
386.171	12703.11011
386.489	12925.75318
386.806	12950.49359
387.123	12850.64284
387.441	12897.94771
387.758	12903.09467
388.075	12805.47452
388.392	12665.33735
388.709	12585.8872
389.026	12613.36187
389.343	12609.28973
389.66	12708.21875
389.977	12831.12875
390.294	12745.0307
390.61	12951.52493
390.927	13107.70676
391.244	12970.09597
391.56	12988.6798
391.877	12980.41874
392.193	12858.86365
392.51	12928.84448
392.826	12882.51286
393.143	12785.99421
393.459	12857.83591
393.775	12898.97702
394.092	12864.00297
394.408	12942.24424
394.724	13077.64354
395.04	13168.96627
395.356	13213.69212
395.672	13448.70229
395.988	13697.58217
396.304	13805.95152
396.62	13776.48888
396.936	13737.55809
397.252	13899.58134
397.567	14108.46536
397.883	14118.93093
398.199	13877.49407
398.514	13874.33839
398.83	14016.21682
399.146	13815.42151
399.461	13717.56892
399.777	13817.52593
400.092	13758.60122
400.407	13695.47847
400.723	13431.94185
401.038	13083.86091
401.353	13022.78317
401.668	12956.68227
401.983	12838.31645
402.298	12782.9197
402.613	12725.59566
402.928	12686.76921
403.243	12548.28328
403.558	12596.05965
403.873	12818.81157
404.188	12711.28442
404.503	12616.41639
404.817	12684.72731
405.132	12645.96183
405.447	12728.66339
405.761	12777.79633
406.076	12649.02016
406.39	12855.78054
406.705	13010.37702
407.019	12854.75292
407.334	13079.71585
407.648	13096.29975
407.962	12787.01912
408.276	12825.99588
408.591	13005.20945
408.905	13046.57724
409.219	13160.65245
409.533	13088.00659
409.847	13089.0431
410.161	13119.1183
410.475	13201.20393
410.789	13279.33582
411.102	13030.02268
411.416	13010.37702
411.73	13157.53536
412.044	13106.66958
412.357	12937.08969
412.671	12885.59911
412.984	13116.00562
413.298	13141.95483
413.611	13023.81727
413.925	13027.95405
414.238	12940.1823
414.552	12960.80885
414.865	12747.07734
415.178	12640.8654
415.491	12719.46131
415.804	12640.8654
416.118	12595.04223
416.431	12410.51657
416.744	12325.76984
417.057	12429.72135
417.37	12386.27699
417.683	12135.98879
417.995	12128.98245
418.308	12181.06681
418.621	12168.03757
418.934	12116.97518
419.246	12201.12257
419.559	12441.85762
419.872	12588.93852
420.184	12791.11919
420.497	12846.5334
420.809	12881.48419
421.121	12765.50437
421.434	12617.43464
421.746	12662.2771
422.058	12667.37772
422.371	12440.84606
422.683	12414.55857
422.995	12249.31066
423.307	12101.9724
423.619	12193.09869
423.931	12020.07772
424.243	12077.98235
424.555	12046.02267
424.867	11877.71781
425.179	11781.45099
425.491	11670.5629
425.802	11627.07002
426.114	11544.13709
426.426	11337.28378
426.737	11341.21845
427.049	11467.23303
427.361	11505.6732
427.672	11489.90009
427.984	11316.62969
428.295	11356.95899
428.606	11531.31306
428.918	11486.94307
429.229	11374.6707
429.54	11288.11517
429.851	11036.70656
430.163	11016.10095
430.474	11029.83782
430.785	11019.0445
431.096	11084.79423
431.407	11135.84041
431.718	11155.47812
432.029	10928.78966
432.339	10915.05725
432.65	11025.91291
432.961	10990.59165
433.272	10944.48438
433.582	10969.0087
433.893	10930.75147
434.204	10824.82287
434.514	10878.76616
434.825	11012.17627
435.135	10982.74312
435.446	10984.70523
435.756	11142.7133
436.066	11181.01137
436.377	11212.444
436.687	11256.66073
436.997	11153.51422
437.307	11214.40881
437.617	11292.04769
437.927	11073.01655
438.237	10970.97072
438.547	11004.32711
438.857	10971.95174
439.167	11253.71238
439.477	11321.54689
439.787	11354.00741
440.097	11363.84641
440.407	11207.5321
440.716	11121.11386
441.026	11060.25823
441.336	11168.24413
441.645	11070.07224
441.955	10873.86212
442.264	10933.69419
442.574	11089.70183
442.883	10910.15291
443.192	10887.59353
443.502	11037.68783
443.811	10905.24863
444.12	10789.51517
444.429	10743.4182
444.739	10610.01136
445.048	10571.7457
445.357	10564.87692
445.666	10524.64163
445.975	10550.15749
446.284	10659.0629
446.593	10511.88261
446.901	10374.42401
447.21	10617.86009
447.519	10444.14823
447.828	10314.49574
448.136	10408.79871
448.445	10620.80332
448.754	10611.97356
449.062	10400.94227
449.371	10546.23215
449.679	10663.96769
449.988	10785.59208
450.296	11137.80406
450.605	11526.38148
450.913	11877.71781
451.221	12338.86873
451.529	12528.99391
451.838	12254.33472
452.146	11849.90604
452.454	11837.99264
452.762	11975.21889
453.07	11676.49668
453.378	11384.51225
453.686	11252.72962
453.994	11250.76412
454.302	11127.98607
454.609	10729.68678
454.917	10575.67063
455.225	10531.51156
455.533	10444.14823
455.84	10357.72507
456.148	10332.18198
456.455	10150.29714
456.763	10115.85721
457.07	10406.83464
457.378	10483.41739
457.685	10455.92984
457.993	10458.87513
458.3	10559.97054
458.607	10683.58625
458.915	10766.95728
459.222	10920.94252
459.529	10879.74698
459.836	10951.35101
460.143	10787.55362
460.45	10405.85259
460.757	10342.9892
461.064	10460.83862
461.371	10558.00796
461.678	10553.10144
461.985	10764.99571
462.292	11013.15744
462.598	11409.12165
462.905	11712.11473
463.212	11796.32299
463.518	11971.23419
463.825	12217.17669
464.131	12685.74824
464.438	12732.75425
464.744	12435.78881
465.051	12259.35964
465.357	12180.06437
465.664	12106.97255
465.97	11662.6523
466.276	11528.35407
466.582	11524.40896
466.889	11445.55871
467.195	11680.45294
467.501	12142.99667
467.807	13041.40288
468.113	13744.923
468.419	14246.23185
468.725	14835.52425
469.031	15233.22161
469.337	15294.83501
469.642	15062.12926
469.948	14757.82815
470.254	14680.89307
470.56	14261.8264
470.865	13497.97245
471.171	13196.002
471.477	12791.11919
471.782	12142.99667
472.088	11939.37242
472.393	12092.97407
472.698	11847.92023
473.004	11534.27221
473.309	11588.54992
473.614	11995.14907
473.92	12413.54801
474.225	12406.47516
474.53	12295.56452
474.835	12147.00187
475.14	11976.21513
475.445	11858.84341
475.75	11403.21466
476.055	10961.16072
476.36	10802.26518
476.665	10391.1212
476.97	10029.22063
477.275	10192.59573
477.58	10317.44359
477.885	10141.4421
478.189	10014.44646
478.494	9833.05401
478.799	9686.92656
479.103	9886.32045
479.408	9908.99993
479.712	9936.60327
480.017	10090.2668
480.321	10199.48019
480.625	10340.04185
480.93	10512.8641
481.234	10965.08469
481.538	11456.395
481.843	11749.74108
482.147	12019.08023
482.451	12370.12901
482.755	12622.52649
483.059	12549.29889
483.363	12544.22119
483.667	12708.21875
483.971	12714.35045
484.275	12598.09461
484.579	12871.19971
484.883	13080.75206
485.187	12869.1433
485.49	12739.91481
485.794	12583.85318
486.098	12411.52701
486.401	12434.77747
486.705	12294.55822
487.009	12014.09321
487.312	12150.0061
487.616	12123.97888
487.919	11773.52135
488.222	11889.64318
488.526	12124.97953
488.829	12053.01124
489.132	12024.06797
489.436	11748.75052
489.739	11798.30632
490.042	12073.98571
490.345	11944.34898
490.648	11939.37242
490.951	11843.9489
491.254	11959.28275
491.557	12286.50909
491.86	12344.9164
492.163	12546.25216
492.466	12926.78357
492.769	13429.84726
493.072	13762.81002
493.375	13901.68465
493.677	13904.83952
493.98	13880.64966
494.283	13777.54111
494.585	13554.64146
494.888	13296.02818
495.19	12896.91844
495.493	12598.09461
495.795	12367.10231
496.098	12182.06929
496.4	12131.98498
496.702	12024.06797
497.005	12059.0026
497.307	12068.99059
497.609	11933.40142
497.911	11999.13646
498.213	11944.34898
498.515	11760.63878
498.818	11637.93975
499.12	11841.96338
499.422	11941.36296
499.723	11842.95613
500.025	11837.00002
500.327	11647.82332
500.629	11723.00339
500.931	11897.59547
501.233	11822.11354
501.534	11805.24869
501.836	11730.92403
502.138	11718.05368
502.439	11814.17629
502.741	11788.39061
503.042	11753.70357
503.344	11751.72228
503.645	11981.19677
503.947	11889.64318
504.248	11710.13525
504.55	11810.20823
504.851	11986.1791
505.152	12116.97518
505.453	12009.10692
505.755	12054.00973
506.056	11891.6311
506.357	11779.46844
506.658	11820.12909
506.959	11701.22861
507.26	11835.01484
507.561	11849.90604
507.862	11763.61135
508.163	11714.0943
508.464	11606.32498
508.764	11678.47477
509.065	11615.21471
509.366	11671.55181
509.667	11807.23244
509.967	11589.53727
510.268	11452.45434
510.569	11521.45031
510.869	11478.07282
511.17	11448.5139
511.47	11528.35407
511.771	11459.35066
512.071	11432.75438
512.371	11412.07532
512.672	11239.95452
512.972	11264.52341
513.272	11400.26134
513.573	11289.09828
513.873	11323.51385
514.173	11310.72941
514.473	11150.56844
514.773	11122.09559
515.073	11135.84041
515.373	11162.35197
515.673	11123.07732
515.973	11098.53586
516.273	11024.9317
516.573	10877.78535
516.873	10856.20777
517.172	10894.45934
517.472	10928.78966
517.772	10924.86607
518.072	10822.86133
518.371	10832.66905
518.671	10796.38057
518.97	10782.64975
519.27	10792.45748
