Data from sample_5_A_12Oclock_ST026791__135__22944.txt Node

Date: Tue Aug 19 16:33:57 AEST 2025
User: mathewyoussef
Spectrometer: ST02679
Trigger mode: 0
Integration Time (sec): 6.653700E-1
Scans to average: 1
Nonlinearity correction enabled: true
Boxcar width: 0
Storing dark spectrum: false
XAxis mode: Wavelengths
Number of Pixels in Spectrum: 1516
>>>>>Begin Spectral Data<<<<<
187.304	576.75242
187.653	609.63015
188.002	641.38322
188.351	596.91145
188.7	561.88144
189.048	590.54827
189.397	629.74755
189.746	632.92172
190.094	591.60898
190.443	596.91145
190.791	606.45143
191.14	595.8511
191.488	605.39171
191.837	614.92662
192.185	617.04472
192.533	625.51436
192.881	632.92172
193.229	605.39171
193.577	603.27207
193.925	611.74894
194.273	590.54827
194.621	597.97173
194.969	609.63015
195.317	590.54827
195.664	592.66961
196.012	606.45143
196.359	587.3657
196.707	551.25029
197.054	571.44303
197.402	596.91145
197.749	591.60898
198.096	599.03194
198.443	576.75242
198.791	561.88144
199.138	575.69069
199.485	582.05997
199.832	599.03194
200.179	614.92662
200.525	606.45143
200.872	590.54827
201.219	586.3047
201.566	605.39171
201.912	622.33876
202.259	612.80824
202.605	602.21215
202.952	622.33876
203.298	619.16254
203.644	614.92662
203.991	612.80824
204.337	583.12126
204.683	579.93717
205.029	595.8511
205.375	588.42663
205.721	610.68958
206.067	620.22135
206.413	611.74894
206.759	604.33193
207.104	555.50366
207.45	564.00676
207.796	621.28009
208.141	614.92662
208.487	608.57064
208.832	601.15215
209.177	562.94414
209.523	593.73018
209.868	591.60898
210.213	548.05945
210.558	583.12126
210.903	617.04472
211.248	604.33193
211.593	602.21215
211.938	608.57064
212.283	630.80567
212.628	609.63015
212.973	567.19418
213.317	588.42663
213.662	597.97173
214.007	578.87566
214.351	578.87566
214.696	611.74894
215.04	608.57064
215.384	586.3047
215.729	578.87566
216.073	575.69069
216.417	615.9857
216.761	606.45143
217.105	571.44303
217.449	618.10366
217.793	646.66949
218.137	633.97964
218.481	632.92172
218.824	640.32577
219.168	631.86373
219.512	619.16254
219.855	613.86746
220.199	595.8511
220.542	578.87566
220.886	622.33876
221.229	642.44061
221.572	580.99861
221.916	565.06931
222.259	583.12126
222.602	585.24363
222.945	576.75242
223.288	569.31875
223.631	560.81866
223.974	540.61148
224.317	568.25651
224.659	627.63109
225.002	642.44061
225.345	597.97173
225.687	587.3657
226.03	611.74894
226.372	602.21215
226.715	586.3047
227.057	567.19418
227.4	579.93717
227.742	610.68958
228.084	609.63015
228.426	607.51107
228.768	614.92662
229.11	605.39171
229.452	613.86746
229.794	643.49793
230.136	610.68958
230.478	588.42663
230.82	587.3657
231.161	588.42663
231.503	658.29348
231.845	648.78353
232.186	662.51844
232.528	646.66949
232.869	564.00676
233.21	594.79068
233.552	614.92662
233.893	590.54827
234.234	580.99861
234.575	609.63015
234.916	617.04472
235.257	601.15215
235.598	627.63109
235.939	641.38322
236.28	623.39736
236.621	609.63015
236.961	658.29348
237.302	641.38322
237.643	586.3047
237.983	611.74894
238.324	611.74894
238.664	632.92172
239.005	630.80567
239.345	601.15215
239.685	620.22135
240.025	623.39736
240.366	590.54827
240.706	588.42663
241.046	607.51107
241.386	589.48748
241.726	583.12126
242.066	584.18248
242.405	562.94414
242.745	577.81408
243.085	596.91145
243.425	606.45143
243.764	643.49793
244.104	699.44353
244.443	676.24245
244.783	639.26825
245.122	605.39171
245.461	551.25029
245.801	592.66961
246.14	609.63015
246.479	588.42663
246.818	585.24363
247.157	623.39736
247.496	651.95411
247.835	603.27207
248.174	564.00676
248.513	565.06931
248.852	678.35288
249.19	674.13176
249.529	586.3047
249.868	593.73018
250.206	577.81408
250.545	574.62889
250.883	574.62889
251.221	568.25651
251.56	573.56701
251.898	580.99861
252.236	604.33193
252.574	620.22135
252.912	590.54827
253.25	557.62989
253.588	559.75581
253.926	593.73018
254.264	587.3657
254.602	576.75242
254.94	590.54827
255.278	606.45143
255.615	607.51107
255.953	572.50506
256.29	573.56701
256.628	605.39171
256.965	604.33193
257.303	588.42663
257.64	637.15301
257.977	633.97964
258.314	596.91145
258.652	597.97173
258.989	587.3657
259.326	568.25651
259.663	606.45143
260	618.10366
260.337	584.18248
260.673	603.27207
261.01	628.68935
261.347	608.57064
261.684	555.50366
262.02	584.18248
262.357	623.39736
262.693	591.60898
263.03	570.38093
263.366	602.21215
263.702	610.68958
264.039	593.73018
264.375	591.60898
264.711	625.51436
265.047	620.22135
265.383	580.99861
265.719	589.48748
266.055	591.60898
266.391	610.68958
266.727	614.92662
267.063	603.27207
267.399	608.57064
267.734	622.33876
268.07	610.68958
268.405	597.97173
268.741	636.09528
269.076	607.51107
269.412	595.8511
269.747	595.8511
270.082	564.00676
270.418	584.18248
270.753	621.28009
271.088	637.15301
271.423	626.57276
271.758	591.60898
272.093	606.45143
272.428	619.16254
272.763	597.97173
273.098	580.99861
273.433	605.39171
273.767	631.86373
274.102	588.42663
274.436	569.31875
274.771	590.54827
275.106	600.09208
275.44	620.22135
275.774	638.21066
276.109	607.51107
276.443	590.54827
276.777	593.73018
277.111	615.9857
277.445	618.10366
277.78	579.93717
278.114	584.18248
278.447	600.09208
278.781	595.8511
279.115	595.8511
279.449	587.3657
279.783	607.51107
280.116	617.04472
280.45	577.81408
280.784	585.24363
281.117	638.21066
281.451	626.57276
281.784	662.51844
282.117	678.35288
282.451	600.09208
282.784	568.25651
283.117	577.81408
283.45	604.33193
283.783	590.54827
284.116	618.10366
284.449	649.84046
284.782	637.15301
285.115	647.72654
285.448	626.57276
285.781	618.10366
286.114	614.92662
286.446	586.3047
286.779	654.06749
287.111	647.72654
287.444	586.3047
287.776	604.33193
288.109	619.16254
288.441	609.63015
288.773	584.18248
289.106	614.92662
289.438	626.57276
289.77	608.57064
290.102	619.16254
290.434	599.03194
290.766	644.55518
291.098	667.79818
291.43	636.09528
291.762	608.57064
292.094	595.8511
292.425	621.28009
292.757	632.92172
293.089	639.26825
293.42	646.66949
293.752	619.16254
294.083	602.21215
294.414	658.29348
294.746	649.84046
295.077	627.63109
295.408	659.34982
295.74	689.9558
296.071	685.73743
296.402	630.80567
296.733	617.04472
297.064	626.57276
297.395	636.09528
297.726	659.34982
298.056	684.68268
298.387	691.01024
298.718	727.87742
299.049	764.67329
299.379	686.79211
299.71	680.46307
300.04	701.55124
300.371	673.07633
300.701	716.29847
301.031	747.86091
301.362	745.75836
301.692	751.01432
302.022	760.47153
302.352	763.62293
302.682	706.81946
303.012	680.46307
303.342	739.44933
303.672	781.4716
304.002	803.49866
304.332	788.81654
304.662	803.49866
304.992	819.21826
305.321	768.87417
305.651	775.17386
305.98	819.21826
306.31	794.06133
306.639	798.25622
306.969	816.07526
307.298	804.54699
307.628	842.25324
307.957	840.16014
308.286	853.76185
308.615	877.80676
308.944	868.40083
309.273	829.69168
309.602	803.49866
309.931	879.89646
310.26	931.03827
310.589	911.22028
310.918	870.49136
311.247	911.22028
311.575	961.25751
311.904	995.60376
312.233	1017.43867
312.561	964.38168
312.89	958.13298
313.218	1080.77346
313.546	1127.41533
313.875	992.48313
314.203	928.95289
314.531	939.37809
314.859	943.547
315.188	1001.844
315.516	1053.79426
315.844	1083.88498
316.172	1132.59378
316.5	1123.272
316.827	1084.92208
317.155	1110.83901
317.483	1160.54423
317.811	1145.01893
318.138	1113.94769
318.466	1128.45108
318.794	1100.47468
319.121	1095.2913
319.449	1172.95967
319.776	1111.87527
320.103	1091.14401
320.431	1168.82166
320.758	1206.04727
321.085	1225.67954
321.412	1228.77848
321.739	1254.59372
322.066	1217.41452
322.393	1157.43971
322.72	1191.57501
323.047	1200.87923
323.374	1269.04319
323.701	1275.2343
324.028	1261.81908
324.354	1307.20757
324.681	1218.44774
325.008	1264.91528
325.334	1301.02102
325.661	1294.8336
325.987	1356.66968
326.314	1371.0863
326.64	1343.2789
326.966	1372.1159
327.293	1386.52794
327.619	1349.45973
327.945	1357.69958
328.271	1408.13818
328.597	1423.56844
328.923	1373.14547
329.249	1341.21845
329.575	1358.72946
329.901	1358.72946
330.227	1404.02266
330.552	1458.52688
330.878	1447.2193
331.204	1438.99412
331.529	1408.13818
331.855	1462.63813
332.18	1501.67986
332.506	1431.79603
332.831	1374.17502
333.156	1447.2193
333.482	1492.43559
333.807	1445.16313
334.132	1478.05261
334.457	1456.47113
334.782	1441.05053
335.107	1483.18981
335.432	1450.30342
335.757	1481.13499
336.082	1512.97638
336.407	1519.13719
336.732	1505.78794
337.057	1488.32654
337.381	1529.40376
337.706	1489.35383
338.031	1451.33142
338.355	1537.61572
338.68	1609.42326
339.004	1571.47824
339.329	1605.32219
339.653	1615.57438
339.977	1569.4265
340.301	1601.22086
340.626	1613.52407
340.95	1606.34749
341.274	1588.91528
341.598	1568.4006
341.922	1599.1701
342.246	1610.44849
342.57	1607.37276
342.894	1616.59951
343.218	1624.79995
343.541	1695.48687
343.865	1749.73365
344.189	1791.67029
344.512	1775.3076
344.836	1702.65392
345.159	1697.53468
345.483	1713.91495
345.806	1691.39108
346.13	1765.07909
346.453	1781.44403
346.776	1705.72529
347.099	1774.28481
347.423	1831.53945
347.746	1751.77989
348.069	1748.7105
348.392	1818.25205
348.715	1807.00706
349.038	1749.73365
349.361	1775.3076
349.683	1882.62357
350.006	1874.45236
350.329	1795.7604
350.652	1820.29642
350.974	1872.40942
351.297	1870.36643
351.619	1939.79864
351.942	2001.01292
352.264	1976.53269
352.587	1870.36643
352.909	1830.51742
353.231	1877.51666
353.554	1855.0423
353.876	1884.66625
354.198	2051.99021
354.52	2071.35344
354.842	1950.0042
355.164	1966.33044
355.486	2009.17139
355.808	2009.17139
356.13	1950.0042
356.452	2020.38797
356.773	2057.08623
357.095	1922.44623
357.417	1958.16773
357.738	1984.69357
358.06	2025.48591
358.381	2017.32905
358.703	1909.17422
359.024	1987.7537
359.346	1946.94267
359.667	1906.11113
359.988	1964.28984
360.309	1950.0042
360.631	1971.43172
360.952	1974.49234
361.273	1990.81371
361.594	2096.82457
361.915	2109.04798
362.236	2064.22014
362.557	2100.89924
362.878	2180.31608
363.198	2136.54421
363.519	2108.02943
363.84	2133.48951
364.16	2044.85527
364.481	2064.22014
364.802	2090.7122
365.122	2094.78716
365.443	2206.77184
365.763	2245.42313
366.083	2154.87006
366.404	2075.42934
366.724	2089.69343
367.044	2171.15639
367.364	2188.45719
367.685	2138.58061
368.005	2083.58054
368.325	2061.16282
368.645	2092.74971
368.965	2123.3064
369.284	2076.44828
369.604	2087.65585
369.924	2200.6674
370.244	2318.60878
370.564	2229.15105
370.883	2087.65585
371.203	2193.54499
371.522	2243.38929
371.842	2271.85859
372.161	2313.52849
372.481	2237.28748
372.8	2199.64995
373.119	2215.92769
373.439	2235.25345
373.758	2324.70471
374.077	2336.89526
374.396	2291.17159
374.715	2257.62514
375.034	2186.42199
375.353	2120.25123
375.672	2051.99021
375.991	1945.92213
376.31	1880.58085
376.629	1844.82455
376.948	1871.38793
377.266	1959.18811
377.585	2063.20104
377.904	2207.78921
378.222	2239.32146
378.541	2255.59159
378.859	2288.12246
379.178	2403.91154
379.496	2375.48697
379.814	2237.28748
380.133	2262.70879
380.451	2299.30206
380.769	2253.558
381.087	2206.77184
381.405	2206.77184
381.723	2224.06538
382.041	2273.89175
382.359	2293.20428
382.677	2263.72548
382.995	2369.39473
383.313	2365.33298
383.631	2227.11682
383.949	2278.97442
384.266	2351.11533
384.584	2342.98987
384.901	2361.27104
385.219	2412.03106
385.537	2346.03701
385.854	2287.10606
386.171	2295.23692
386.489	2328.76843
386.806	2381.57877
387.123	2426.2383
387.441	2381.57877
387.758	2365.33298
388.075	2373.45627
388.392	2357.20891
388.709	2361.27104
389.026	2317.59274
389.343	2311.49629
389.66	2405.9415
389.977	2441.45763
390.294	2408.98633
390.61	2470.87368
390.927	2556.01882
391.244	2484.05675
391.56	2376.5023
391.877	2391.73077
392.193	2365.33298
392.51	2339.94262
392.826	2362.28655
393.143	2391.73077
393.459	2386.65492
393.775	2344.0056
394.092	2360.25553
394.408	2389.70047
394.724	2463.77422
395.04	2433.34101
395.356	2424.20885
395.672	2621.84291
395.988	2682.55475
396.304	2639.04939
396.62	2642.08544
396.936	2712.89286
397.252	2674.46258
397.567	2627.91621
397.883	2620.83064
398.199	2599.57011
398.514	2590.45669
398.83	2627.91621
399.146	2656.25209
399.461	2649.16909
399.777	2631.96483
400.092	2576.2782
400.407	2517.51189
400.723	2473.91612
401.038	2483.04275
401.353	2491.15445
401.668	2481.0147
401.983	2453.63107
402.298	2499.26534
402.613	2493.18225
402.928	2364.31752
403.243	2285.07323
403.558	2329.78432
403.873	2397.82138
404.188	2437.39942
404.503	2423.1941
404.817	2374.47163
405.132	2341.97414
405.447	2406.95645
405.761	2598.55756
406.076	2573.23962
406.39	2489.1266
406.705	2474.93024
407.019	2497.23769
407.334	2590.45669
407.648	2569.188
407.962	2516.4983
408.276	2530.68738
408.591	2516.4983
408.905	2480.00065
409.219	2541.8342
409.533	2581.34224
409.847	2613.74443
410.161	2604.63266
410.475	2557.03191
410.789	2562.09717
411.102	2583.36776
411.416	2679.52029
411.73	2735.13319
412.044	2693.68011
412.357	2605.64513
412.671	2548.92682
412.984	2515.48469
413.298	2548.92682
413.611	2631.96483
413.925	2690.64608
414.238	2627.91621
414.552	2538.79431
414.865	2495.21
415.178	2462.75996
415.491	2485.07075
415.804	2537.78099
416.118	2512.44381
416.431	2412.03106
416.744	2427.25301
417.057	2457.68848
417.37	2472.90199
417.683	2422.17934
417.995	2440.4431
418.308	2475.94435
418.621	2504.33424
418.934	2468.84533
419.246	2482.02873
419.559	2650.18098
419.872	2611.71969
420.184	2569.188
420.497	2590.45669
420.809	2631.96483
421.121	2593.49461
421.434	2494.19613
421.746	2500.27915
422.058	2526.63361
422.371	2555.00571
422.683	2524.60665
422.995	2451.60229
423.307	2476.95844
423.619	2498.25152
423.931	2448.55902
424.243	2491.15445
424.555	2518.52546
424.867	2523.59315
425.179	2558.04499
425.491	2512.44381
425.802	2480.00065
426.114	2459.71711
426.426	2366.34844
426.737	2360.25553
427.049	2507.37542
427.361	2623.8674
427.672	2558.04499
427.984	2447.54458
428.295	2427.25301
428.606	2391.73077
428.918	2443.48666
429.229	2600.58264
429.54	2527.64708
429.851	2347.0527
430.163	2346.03701
430.474	2386.65492
430.785	2456.67415
431.096	2433.34101
431.407	2437.39942
431.718	2424.20885
432.029	2365.33298
432.339	2361.27104
432.65	2381.57877
432.961	2442.47215
433.272	2412.03106
433.582	2380.5635
433.893	2376.5023
434.204	2335.87945
434.514	2369.39473
434.825	2393.76102
435.135	2344.0056
435.446	2357.20891
435.756	2475.94435
436.066	2545.8872
436.377	2540.82092
436.687	2557.03191
436.997	2511.43016
437.307	2503.32048
437.617	2428.26771
437.927	2366.34844
438.237	2441.45763
438.547	2503.32048
438.857	2536.76766
439.167	2577.29103
439.477	2529.67396
439.787	2517.51189
440.097	2572.22673
440.407	2610.70729
440.716	2491.15445
441.026	2436.38483
441.336	2630.95269
441.645	2606.65759
441.955	2456.67415
442.264	2451.60229
442.574	2552.97947
442.883	2545.8872
443.192	2484.05675
443.502	2545.8872
443.811	2573.23962
444.12	2524.60665
444.429	2491.15445
444.739	2447.54458
445.048	2499.26534
445.357	2516.4983
445.666	2495.21
445.975	2442.47215
446.284	2371.42552
446.593	2403.91154
446.901	2426.2383
447.21	2488.11266
447.519	2426.2383
447.828	2392.7459
448.136	2478.98659
448.445	2522.57964
448.754	2486.08473
449.062	2429.28239
449.371	2482.02873
449.679	2487.0987
449.988	2472.90199
450.296	2638.03735
450.605	2710.87069
450.913	2783.63497
451.221	3073.97742
451.529	3132.30681
451.838	2904.75194
452.146	2838.16211
452.454	2966.24311
452.762	3026.67498
453.07	2847.24608
453.378	2738.16546
453.686	2747.26154
453.994	2902.73495
454.302	2897.69225
454.609	2627.91621
454.917	2620.83064
455.225	2710.87069
455.533	2660.29924
455.84	2600.58264
456.148	2586.40595
456.455	2549.94
456.763	2619.81837
457.07	2753.32499
457.378	2819.99082
457.685	2651.19287
457.993	2572.22673
458.3	2682.55475
458.607	2735.13319
458.915	2829.07702
459.222	2892.64919
459.529	2798.78539
459.836	2812.92301
460.143	2837.15271
460.45	2677.49724
460.757	2678.50877
461.064	2778.58415
461.371	2795.75555
461.678	2790.70555
461.985	2773.533
462.292	2859.35632
462.598	2949.11148
462.905	2936.00807
463.212	3033.72203
463.518	3111.19316
463.825	3127.28033
464.131	3334.06895
464.438	3406.19746
464.744	3241.79359
465.051	3167.48201
465.357	3246.81176
465.664	3303.99284
465.97	3162.45807
466.276	3094.09649
466.582	3040.76838
466.889	3040.76838
467.195	3174.51491
467.501	3201.63511
467.807	3405.1962
468.113	3651.06365
468.419	3828.42163
468.725	3938.79699
469.031	3994.41864
469.337	4179.86174
469.642	4150.14096
469.948	3956.67993
470.254	3970.58589
470.56	3830.41188
470.865	3589.18051
471.171	3507.24894
471.477	3416.20926
471.782	3310.00912
472.088	3236.77506
472.393	3359.12224
472.698	3317.02745
473.004	3183.55616
473.309	3265.87742
473.614	3368.13916
473.92	3467.24652
474.225	3468.24687
474.53	3432.22508
474.835	3360.12418
475.14	3297.97603
475.445	3334.06895
475.75	3267.88403
476.055	3149.39413
476.36	3113.20426
476.665	3003.51547
476.97	2899.70937
477.275	2995.45823
477.58	3064.92196
477.885	3072.97131
478.189	3000.49411
478.494	2913.82769
478.799	2883.57081
479.103	2888.61449
479.408	2918.86928
479.712	2983.37066
480.017	3005.52964
480.321	3017.61346
480.625	3052.8462
480.93	3154.41901
481.234	3232.75998
481.538	3261.86404
481.843	3379.15823
482.147	3515.2466
482.451	3591.17761
482.755	3619.13094
483.059	3658.04696
483.363	3661.03959
483.667	3766.69627
483.971	3792.58767
484.275	3758.72777
484.579	3848.32158
484.883	3899.04149
485.187	3913.95234
485.49	3891.08779
485.794	3743.78438
486.098	3661.03959
486.401	3688.96453
486.705	3651.06365
487.009	3518.24548
487.312	3606.15403
487.616	3774.66387
487.919	3619.13094
488.222	3582.19019
488.526	3606.15403
488.829	3633.10333
489.132	3646.07514
489.436	3581.19152
489.739	3693.94995
490.042	3684.97595
490.345	3711.89446
490.648	3731.82737
490.951	3664.03209
491.254	3721.86163
491.557	3838.3723
491.86	3830.41188
492.163	3853.29571
492.466	3969.5927
492.769	4060.91182
493.072	4168.96539
493.375	4246.19924
493.677	4281.82165
493.98	4217.49251
494.283	4261.04372
494.585	4231.35216
494.888	4106.5305
495.19	4062.8958
495.493	4049.00686
495.795	3980.51713
496.098	3999.38283
496.4	4069.83933
496.702	3949.72597
497.005	3887.11061
497.307	3970.58589
497.609	3898.04733
497.911	3851.3061
498.213	3881.14442
498.515	3838.3723
498.818	3905.0062
499.12	3922.89739
499.422	3812.49766
499.723	3767.69227
500.025	3902.02391
500.327	3931.84134
500.629	3885.12193
500.931	3898.04733
501.233	3873.18875
501.534	3857.27476
501.836	3831.40698
502.138	3970.58589
502.439	4083.72451
502.741	3992.43286
503.042	3957.6733
503.344	3940.7842
503.645	4049.00686
503.947	4103.55618
504.248	4092.64939
504.55	4101.57324
504.851	4118.42665
505.152	4167.97474
505.453	4105.53907
505.755	4135.27645
506.056	4100.58175
506.357	4090.66617
506.658	4153.11353
506.959	4095.62412
507.26	4112.4788
507.561	4093.64098
507.862	4111.48745
508.163	4185.80459
508.464	4173.91846
508.764	4129.32987
509.065	4042.06145
509.366	4093.64098
509.667	4217.49251
509.967	4168.96539
510.268	4114.46146
510.569	4156.08599
510.869	4158.06757
511.17	4113.47014
511.47	4203.63054
511.771	4222.44265
512.071	4223.43264
512.371	4197.68899
512.672	4080.74932
512.972	4090.66617
513.272	4122.39163
513.573	4062.8958
513.873	4046.03033
514.173	4059.91981
514.473	4054.95957
514.773	4159.05834
515.073	4184.81414
515.373	4163.02131
515.673	4082.73279
515.973	3967.60626
516.273	4014.27346
516.573	4042.06145
516.873	4077.77402
517.172	4104.54764
517.472	4031.14595
517.772	4015.26606
518.072	4067.85552
518.371	4128.33873
518.671	4107.52192
518.97	4092.64939
519.27	4084.71621
519.569	4033.13071
519.869	4078.7658
520.168	4082.73279
520.468	3994.41864
520.767	4011.29557
521.066	3968.59949
521.366	4060.91182
521.665	4056.94371
521.964	3909.97642
522.263	3982.50322
522.562	4103.55618
522.861	4117.43537
523.161	4094.63255
523.46	4061.90381
523.759	4031.14595
524.057	4084.71621
524.356	4062.8958
524.655	4029.16115
524.954	4004.3467
525.253	4036.10774
525.552	4105.53907
525.85	4161.03985
526.149	4062.8958
526.448	3981.51018
526.746	3992.43286
527.045	4001.36842
527.344	4199.66955
527.642	4246.19924
527.941	4173.91846
528.239	4176.89015
528.537	4092.64939
528.836	4073.80678
